Experiment	Sweeper	
Saved Date	30.06.2023 13:56:52	
User		
Date		
Start time	30.06.2023 13:46:47	
Sweep channel: Name	Output 3 (V)	
Sweep channel: Start (V)	-150E-3	
Sweep channel: Stop (V)	150E-3	
Sweep channel: Points	501	
Sweep channel: Max slew rate (V/s)	Inf	
Sweep channel: Initial settling time (s)	20E+3	
Sweep channel: End settling time (s)	2E+0	
Sweep channel: Backward sweep	TRUE	
Sweep channel: Number of sweeps	2	
Sweep channel: Reset	FALSE	
Step channel 1: Name	Output 2 (V)	
Step channel 1: Start (V)	90E-6	
Step channel 1: Stop (V)	90E-6	
Step channel 1: Points	2	
Step channel 1: Max slew rate (V/s)	10E+0	
Step channel 1:  Initial settling time (s)	2E+0	
Step channel 1: End settling time (s)	2E+0	
Step channel 1: Backward sweep	FALSE	
Step channel 1: Reset	FALSE	
Sweep Type	2D-Both RT	
Acquire channels	Input 1 (V)	
Filter type	None	
Order		
Cutoff frq		

[DATA]
Output 3 Setp. (V)	Input 1 [00001] (V)	Input 1 [00002] (V)	Input 1 [00001] [bwd] (V)	Input 1 [00002] [bwd] (V)
-150.00001E-3	-4.8148767E-3	-4.6228198E-3	-4.9371426E-3	-4.9136197E-3
-149.40001E-3	-4.5646378E-3	-4.4811582E-3	-4.8168441E-3	-4.6613193E-3
-148.80000E-3	-4.3711485E-3	-4.3256329E-3	-4.7799889E-3	-4.5123301E-3
-148.20001E-3	-4.1951807E-3	-4.1886354E-3	-4.5223124E-3	-4.3706978E-3
-147.60001E-3	-4.0305173E-3	-4.0096985E-3	-4.2696455E-3	-4.1818097E-3
-147.00000E-3	-3.8729834E-3	-3.8979764E-3	-4.0770154E-3	-3.8992292E-3
-146.40000E-3	-3.7067409E-3	-3.6914307E-3	-3.9094226E-3	-3.5482957E-3
-145.80001E-3	-3.4980106E-3	-3.4341810E-3	-3.7527289E-3	-3.3345991E-3
-145.20000E-3	-3.2623352E-3	-3.1810789E-3	-3.7108678E-3	-3.3029737E-3
-144.60000E-3	-2.9705500E-3	-2.9499743E-3	-3.5813726E-3	-3.3040193E-3
-144.00001E-3	-2.7657219E-3	-2.7989270E-3	-3.4156039E-3	-3.2158252E-3
-143.40000E-3	-2.6302764E-3	-2.7296611E-3	-3.2683995E-3	-3.0798260E-3
-142.80000E-3	-2.5628528E-3	-2.6924792E-3	-3.0429368E-3	-2.9379840E-3
-142.20001E-3	-2.5521314E-3	-2.6525285E-3	-2.8199544E-3	-2.8426321E-3
-141.60001E-3	-2.5200723E-3	-2.6067495E-3	-2.5077017E-3	-2.9158741E-3
-141.00000E-3	-2.4466605E-3	-2.4879642E-3	-2.2523412E-3	-2.9776797E-3
-140.40001E-3	-2.3288447E-3	-2.3963635E-3	-2.0812617E-3	-2.7256720E-3
-139.80001E-3	-2.1793912E-3	-2.2350082E-3	-1.9647989E-3	-2.3830661E-3
-139.20000E-3	-2.0469266E-3	-2.0960548E-3	-1.9611111E-3	-2.1169584E-3
-138.60001E-3	-1.9023599E-3	-1.9611889E-3	-1.8830302E-3	-1.9584510E-3
-138.00001E-3	-1.7638601E-3	-1.8118309E-3	-1.6343730E-3	-1.8156448E-3
-137.40000E-3	-1.6831126E-3	-1.6945086E-3	-1.5114190E-3	-1.6571427E-3
-136.80001E-3	-1.6888656E-3	-1.5854258E-3	-1.3819945E-3	-1.4083775E-3
-136.20001E-3	-1.6464350E-3	-1.5002702E-3	-1.2434387E-3	-1.0812178E-3
-135.60000E-3	-1.5271321E-3	-1.4315695E-3	-1.0500413E-3	-818.00186E-6
-135.00001E-3	-1.3266889E-3	-1.4117392E-3	-915.88096E-6	-792.22169E-6
-134.40001E-3	-1.0357156E-3	-1.2748335E-3	-800.73538E-6	-794.47002E-6
-133.80000E-3	-759.30206E-6	-1.0858824E-3	-806.54223E-6	-675.49676E-6
-133.20000E-3	-494.56948E-6	-848.89238E-6	-735.96160E-6	-557.27654E-6
-132.60001E-3	-335.96100E-6	-591.45287E-6	-715.91960E-6	-449.01544E-6
-132.00000E-3	-157.28154E-6	-352.96343E-6	-661.04188E-6	-335.37130E-6
-131.40000E-3	-42.675769E-6	-137.86537E-6	-447.54401E-6	-346.03363E-6
-130.80001E-3	123.07061E-6	100.33150E-6	-230.63157E-6	-369.87680E-6
-130.20000E-3	310.30903E-6	261.91745E-6	7.8685234E-6	-262.04312E-6
-129.60000E-3	515.81371E-6	387.06037E-6	280.63453E-6	44.814238E-6
-129.00001E-3	788.80717E-6	551.18673E-6	341.94952E-6	303.65854E-6
-128.40000E-3	1.0816293E-3	655.23043E-6	435.41379E-6	474.03801E-6
-127.80000E-3	1.2472929E-3	851.68669E-6	661.99026E-6	650.12107E-6
-127.20001E-3	1.3196395E-3	1.0178315E-3	812.60758E-6	813.86685E-6
-126.60000E-3	1.3329003E-3	1.1824493E-3	980.06858E-6	1.1680606E-3
-126.00000E-3	1.3854131E-3	1.3713072E-3	1.1365712E-3	1.4167381E-3
-125.40001E-3	1.4465281E-3	1.6012504E-3	1.3615541E-3	1.7070851E-3
-124.80000E-3	1.5378789E-3	1.8359488E-3	1.6313477E-3	1.8882998E-3
-124.20000E-3	1.6755840E-3	2.0868436E-3	1.9087071E-3	1.9055837E-3
-123.60001E-3	1.8228840E-3	2.2701211E-3	2.1807419E-3	1.9230674E-3
-123.00000E-3	1.9596950E-3	2.3440567E-3	2.3391952E-3	1.9592764E-3
-122.40000E-3	2.1133774E-3	2.3977947E-3	2.3777997E-3	2.2956016E-3
-121.80001E-3	2.1287643E-3	2.4424319E-3	2.5081546E-3	2.4169816E-3
-121.20000E-3	2.2167969E-3	2.4859228E-3	2.5926423E-3	2.4791781E-3
-120.60000E-3	2.2492784E-3	2.5629210E-3	2.6551876E-3	2.3726013E-3
-120.00000E-3	2.3442958E-3	2.6608198E-3	2.8192899E-3	2.3443804E-3
-119.40000E-3	2.5225307E-3	2.8115399E-3	2.9194567E-3	2.3702129E-3
-118.80001E-3	2.7837476E-3	2.9120699E-3	3.0709917E-3	2.6666140E-3
-118.20000E-3	3.0854924E-3	3.1040269E-3	3.2285522E-3	2.9636486E-3
-117.60001E-3	3.3470502E-3	3.2371483E-3	3.3392962E-3	3.1388809E-3
-117.00001E-3	3.5204936E-3	3.3659611E-3	3.3669763E-3	3.3241087E-3
-116.40000E-3	3.6523445E-3	3.4888380E-3	3.4579101E-3	3.4843457E-3
-115.80001E-3	3.7971269E-3	3.6290621E-3	3.4670802E-3	3.6799365E-3
-115.20001E-3	3.9843712E-3	3.8023498E-3	3.5060595E-3	3.9463602E-3
-114.60000E-3	4.1332156E-3	3.8658420E-3	3.6092892E-3	4.3290891E-3
-114.00001E-3	4.3072193E-3	3.9279494E-3	3.8201485E-3	4.5559984E-3
-113.40000E-3	4.5942590E-3	4.0036035E-3	4.0141796E-3	4.5832521E-3
-112.80000E-3	4.8432373E-3	4.1389447E-3	4.2936229E-3	4.5284908E-3
-112.20001E-3	5.0120340E-3	4.2134416E-3	4.4866949E-3	4.6270969E-3
-111.60000E-3	5.1646498E-3	4.3475409E-3	4.6661561E-3	4.8436360E-3
-111.00000E-3	5.1317769E-3	4.5769005E-3	4.7948421E-3	4.9498295E-3
-110.40001E-3	5.2143647E-3	4.8494022E-3	4.9806070E-3	5.0869389E-3
-109.80000E-3	5.2277665E-3	5.1094028E-3	5.0923782E-3	5.0895661E-3
-109.20000E-3	5.3529665E-3	5.2863099E-3	5.2333991E-3	5.0679096E-3
-108.60001E-3	5.4365024E-3	5.5245282E-3	5.4056542E-3	5.0966968E-3
-108.00000E-3	5.6141787E-3	5.6899060E-3	5.6205252E-3	5.5379230E-3
-107.40000E-3	5.6273686E-3	5.8276318E-3	5.8079758E-3	5.8097974E-3
-106.80000E-3	5.7633165E-3	5.9557492E-3	6.0513020E-3	6.0475320E-3
-106.20000E-3	5.8741304E-3	6.0940264E-3	6.3241194E-3	6.2496834E-3
-105.60000E-3	5.8967993E-3	6.2595429E-3	6.5193432E-3	6.3509671E-3
-105.00000E-3	5.9120134E-3	6.4222049E-3	6.7405929E-3	6.5712323E-3
-104.40001E-3	6.0845367E-3	6.6061546E-3	6.8236752E-3	6.7401552E-3
-103.80000E-3	6.4679170E-3	6.7571625E-3	6.9048386E-3	6.9371685E-3
-103.20000E-3	6.7372182E-3	7.0127994E-3	6.9238213E-3	7.1928697E-3
-102.60001E-3	6.8487790E-3	7.2437925E-3	6.9884374E-3	7.3499586E-3
-102.00001E-3	7.1184332E-3	7.4665230E-3	7.1754684E-3	7.3755188E-3
-101.40000E-3	7.2602560E-3	7.6761940E-3	7.2740177E-3	7.4105016E-3
-100.80001E-3	7.4294959E-3	7.7797570E-3	7.4247401E-3	7.5418237E-3
-100.20000E-3	7.5945328E-3	7.8566335E-3	7.6114619E-3	7.6481993E-3
-99.600002E-3	7.7575413E-3	7.8810519E-3	7.7030589E-3	7.9711992E-3
-99.000007E-3	7.9163555E-3	7.9279449E-3	7.8871986E-3	7.9613812E-3
-98.400004E-3	8.1005637E-3	8.0188252E-3	7.9876240E-3	7.9611233E-3
-97.800002E-3	8.3253803E-3	8.1151668E-3	8.1186285E-3	7.9163769E-3
-97.200006E-3	8.5522495E-3	8.2351724E-3	8.1643760E-3	7.9205278E-3
-96.600004E-3	8.7608611E-3	8.3770175E-3	8.1627015E-3	8.1174057E-3
-96.000001E-3	8.9974739E-3	8.5700890E-3	8.1864195E-3	8.4180608E-3
-95.400006E-3	9.0715634E-3	8.6593861E-3	8.3351294E-3	8.6835874E-3
-94.800003E-3	9.0834433E-3	8.7991161E-3	8.5262777E-3	8.8450871E-3
-94.200000E-3	9.1096684E-3	8.9257099E-3	8.7591931E-3	9.0285921E-3
-93.600005E-3	9.1844955E-3	9.0124207E-3	8.9968201E-3	9.1965338E-3
-93.000002E-3	9.3058357E-3	9.0423385E-3	9.2297252E-3	9.4038835E-3
-92.399999E-3	9.4229085E-3	9.1097364E-3	9.4594900E-3	9.5845107E-3
-91.800004E-3	9.5688244E-3	9.2013041E-3	9.6199568E-3	9.9995071E-3
-91.200002E-3	9.7380504E-3	9.3843732E-3	9.7944699E-3	10.256195E-3
-90.599999E-3	9.8913712E-3	9.6655535E-3	9.9185286E-3	10.262648E-3
-90.000004E-3	10.020773E-3	9.9215014E-3	10.051645E-3	10.274787E-3
-89.400008E-3	10.044006E-3	10.214646E-3	10.224815E-3	10.386137E-3
-88.799998E-3	10.093428E-3	10.389368E-3	10.398259E-3	10.486535E-3
-88.200003E-3	10.155868E-3	10.555893E-3	10.629105E-3	10.603251E-3
-87.600008E-3	10.218061E-3	10.753076E-3	10.877889E-3	10.752452E-3
-87.000005E-3	10.360275E-3	10.864892E-3	11.156294E-3	10.803856E-3
-86.400002E-3	10.616669E-3	11.041811E-3	11.391136E-3	10.766843E-3
-85.800000E-3	10.819608E-3	11.239077E-3	11.542625E-3	10.728795E-3
-85.200004E-3	10.998672E-3	11.366300E-3	11.599242E-3	10.961442E-3
-84.600002E-3	11.206769E-3	11.557488E-3	11.616030E-3	11.323353E-3
-84.000006E-3	11.359117E-3	11.745503E-3	11.652667E-3	11.563156E-3
-83.400004E-3	11.489949E-3	11.992713E-3	11.758840E-3	11.698507E-3
-82.800001E-3	11.805874E-3	12.239597E-3	11.867069E-3	11.847979E-3
-82.200006E-3	11.934458E-3	12.461307E-3	12.075968E-3	12.013817E-3
-81.600003E-3	12.089104E-3	12.605964E-3	12.206998E-3	12.300939E-3
-81.000000E-3	12.266796E-3	12.700429E-3	12.326301E-3	12.645041E-3
-80.400005E-3	12.442212E-3	12.664287E-3	12.500088E-3	12.959895E-3
-79.800002E-3	12.763360E-3	12.750091E-3	12.575685E-3	13.050729E-3
-79.200000E-3	13.108962E-3	12.782595E-3	12.596054E-3	13.025033E-3
-78.600004E-3	13.348904E-3	12.927527E-3	12.618097E-3	13.090570E-3
-78.000002E-3	13.469143E-3	13.102869E-3	12.679075E-3	13.229502E-3
-77.399999E-3	13.495991E-3	13.197720E-3	12.773524E-3	13.349268E-3
-76.800004E-3	13.522212E-3	13.362494E-3	12.962125E-3	26.354015E-3
-76.200001E-3	13.622561E-3	13.525054E-3	13.228173E-3	30.726375E-3
-75.600006E-3	13.703099E-3	13.629999E-3	13.536258E-3	30.573642E-3
-75.000003E-3	13.796480E-3	13.780025E-3	13.712536E-3	30.360542E-3
-74.400000E-3	13.935084E-3	13.951379E-3	13.880785E-3	30.348770E-3
-73.800005E-3	14.212480E-3	14.019884E-3	14.100702E-3	30.529795E-3
-73.200002E-3	14.441439E-3	14.078580E-3	25.077902E-3	30.658904E-3
-72.600000E-3	14.604475E-3	14.145593E-3	30.592898E-3	30.631572E-3
-72.000004E-3	14.690022E-3	14.220210E-3	30.634571E-3	30.704912E-3
-71.400002E-3	14.754628E-3	14.336109E-3	30.646494E-3	30.719386E-3
-70.799999E-3	14.806871E-3	14.525576E-3	30.737899E-3	30.763762E-3
-70.200004E-3	14.863640E-3	14.739762E-3	30.863024E-3	30.893980E-3
-69.600001E-3	14.958146E-3	14.972031E-3	30.947817E-3	31.118112E-3
-69.000006E-3	15.236267E-3	15.214697E-3	31.020137E-3	31.166552E-3
-68.400003E-3	15.482821E-3	15.455500E-3	31.063385E-3	31.083673E-3
-67.800000E-3	15.767861E-3	15.708765E-3	31.006576E-3	30.914377E-3
-67.200005E-3	16.015695E-3	15.886717E-3	30.909695E-3	30.821661E-3
-66.600002E-3	16.254405E-3	16.033785E-3	30.801592E-3	30.780772E-3
-66.000000E-3	16.338002E-3	16.191715E-3	30.764088E-3	30.756751E-3
-65.400004E-3	16.505171E-3	16.412694E-3	30.731656E-3	30.767741E-3
-64.800002E-3	16.696602E-3	16.587920E-3	30.690257E-3	30.654904E-3
-64.199999E-3	16.853955E-3	16.726892E-3	30.621609E-3	30.459994E-3
-63.600004E-3	17.053390E-3	16.869349E-3	30.681262E-3	30.365298E-3
-63.000001E-3	17.233858E-3	17.045256E-3	30.685831E-3	30.395871E-3
-62.399998E-3	17.456409E-3	17.234216E-3	30.637329E-3	30.591734E-3
-61.800003E-3	17.687369E-3	17.510936E-3	30.490661E-3	30.683456E-3
-61.200000E-3	17.944051E-3	17.762970E-3	30.548654E-3	30.652579E-3
-60.600005E-3	18.182978E-3	18.003274E-3	30.579910E-3	30.712372E-3
-60.000002E-3	18.351993E-3	18.218169E-3	30.475441E-3	30.720448E-3
-59.400000E-3	18.463440E-3	18.344348E-3	30.380275E-3	30.748975E-3
-58.800004E-3	18.525289E-3	18.440796E-3	30.394940E-3	30.958770E-3
-58.200002E-3	18.554285E-3	18.517917E-3	30.439805E-3	31.120831E-3
-57.599999E-3	18.649044E-3	18.660678E-3	30.533627E-3	31.065343E-3
-57.000004E-3	23.259308E-3	18.743293E-3	30.604953E-3	30.906204E-3
-56.400001E-3	30.769102E-3	18.844005E-3	30.699002E-3	30.770475E-3
-55.799998E-3	30.786252E-3	18.983224E-3	30.661544E-3	30.762183E-3
-55.200003E-3	30.833777E-3	19.105053E-3	30.720362E-3	30.729787E-3
-54.600000E-3	30.770050E-3	19.280896E-3	30.735970E-3	30.700130E-3
-54.000005E-3	30.786412E-3	30.633805E-3	30.748164E-3	30.602794E-3
-53.400002E-3	30.740071E-3	30.652359E-3	30.762345E-3	30.402383E-3
-52.800000E-3	30.582765E-3	30.648563E-3	30.815497E-3	30.294010E-3
-52.200004E-3	30.484280E-3	30.640924E-3	30.886069E-3	30.390669E-3
-51.600002E-3	30.431608E-3	30.592842E-3	30.997127E-3	30.546376E-3
-50.999999E-3	30.408662E-3	30.612279E-3	31.174226E-3	30.636065E-3
-50.400004E-3	30.511100E-3	30.557849E-3	31.260334E-3	30.651337E-3
-49.800001E-3	30.618262E-3	30.508632E-3	31.198949E-3	30.609973E-3
-49.199998E-3	30.747840E-3	30.477487E-3	31.074157E-3	30.508460E-3
-48.600003E-3	30.830625E-3	30.387711E-3	30.946327E-3	30.655438E-3
-48.000000E-3	30.898478E-3	30.297756E-3	30.897077E-3	30.862590E-3
-47.399998E-3	30.930996E-3	30.270703E-3	30.886082E-3	30.965604E-3
-46.800002E-3	30.914651E-3	30.240044E-3	30.873286E-3	30.887775E-3
-46.200000E-3	30.933443E-3	30.282706E-3	30.858783E-3	30.735083E-3
-45.600004E-3	30.973634E-3	30.394906E-3	30.896502E-3	30.620750E-3
-45.000002E-3	30.960556E-3	30.507114E-3	30.827908E-3	30.611899E-3
-44.399999E-3	31.147078E-3	30.593060E-3	30.766493E-3	30.582549E-3
-43.800004E-3	31.266954E-3	30.610360E-3	30.626524E-3	30.563725E-3
-43.200001E-3	31.339746E-3	30.662896E-3	30.485176E-3	30.456403E-3
-42.599998E-3	31.428006E-3	30.708635E-3	30.373087E-3	30.298658E-3
-42.000003E-3	31.389304E-3	30.721914E-3	30.453134E-3	30.161783E-3
-41.400000E-3	31.269688E-3	30.703893E-3	30.599769E-3	30.166468E-3
-40.799998E-3	31.124385E-3	30.729735E-3	30.700959E-3	30.307155E-3
-40.200002E-3	31.033220E-3	30.620523E-3	30.753985E-3	30.456048E-3
-39.600000E-3	30.971559E-3	30.686045E-3	30.789779E-3	30.457145E-3
-38.999997E-3	30.958267E-3	30.724559E-3	30.820092E-3	30.477170E-3
-38.400002E-3	30.902704E-3	30.795144E-3	30.811347E-3	30.489484E-3
-37.799999E-3	30.923106E-3	30.872662E-3	30.815983E-3	30.551760E-3
-37.200004E-3	30.883102E-3	30.973285E-3	30.913115E-3	30.675676E-3
-36.600001E-3	30.859010E-3	31.064687E-3	31.027485E-3	30.891918E-3
-35.999998E-3	30.827912E-3	31.041797E-3	31.187883E-3	30.965967E-3
-35.400003E-3	30.711532E-3	30.995324E-3	31.372767E-3	30.904328E-3
-34.800000E-3	30.560415E-3	30.876104E-3	31.514436E-3	30.708382E-3
-34.199998E-3	30.529648E-3	30.764613E-3	31.400412E-3	30.633723E-3
-33.600003E-3	30.611644E-3	30.680649E-3	31.332370E-3	30.598952E-3
-33.000000E-3	30.718919E-3	30.653775E-3	31.217553E-3	30.606369E-3
-32.399997E-3	30.850545E-3	30.610047E-3	31.150499E-3	30.567143E-3
-31.800002E-3	30.948346E-3	30.649927E-3	31.100728E-3	30.476918E-3
-31.199999E-3	31.025544E-3	30.615035E-3	31.108506E-3	30.286087E-3
-30.600004E-3	31.034267E-3	30.583199E-3	31.058233E-3	30.144554E-3
-30.000001E-3	31.073961E-3	30.574989E-3	31.078652E-3	30.140901E-3
-29.399998E-3	31.038262E-3	30.539090E-3	31.085210E-3	30.255761E-3
-28.800003E-3	31.100847E-3	30.541293E-3	31.080224E-3	30.370614E-3
-28.200001E-3	31.149866E-3	30.416617E-3	31.064551E-3	30.457854E-3
-27.599998E-3	31.250745E-3	30.327037E-3	30.959617E-3	30.465027E-3
-27.000003E-3	31.287152E-3	30.259689E-3	30.883500E-3	30.523069E-3
-26.400000E-3	31.424440E-3	30.272072E-3	30.741453E-3	30.532204E-3
-25.799997E-3	31.437404E-3	30.353185E-3	30.630428E-3	30.594209E-3
-25.200002E-3	31.384137E-3	30.499389E-3	30.630656E-3	30.742368E-3
-24.599999E-3	31.223735E-3	30.536996E-3	30.598704E-3	30.921457E-3
-24.000004E-3	31.132784E-3	30.634142E-3	30.780114E-3	30.929975E-3
-23.399994E-3	31.049911E-3	30.681500E-3	30.858416E-3	30.846341E-3
-22.799999E-3	30.961677E-3	30.676525E-3	30.945180E-3	30.709209E-3
-22.200003E-3	30.957213E-3	30.718077E-3	30.966170E-3	30.635726E-3
-21.599993E-3	30.957792E-3	30.618051E-3	30.989936E-3	30.624913E-3
-20.999998E-3	30.932017E-3	30.604536E-3	30.975809E-3	30.610800E-3
-20.400003E-3	30.942844E-3	30.600626E-3	31.017007E-3	30.578950E-3
-19.799992E-3	30.916203E-3	30.620398E-3	30.997610E-3	30.528296E-3
-19.199997E-3	30.846989E-3	30.676125E-3	30.986806E-3	30.413384E-3
-18.600002E-3	30.759264E-3	30.883566E-3	30.994248E-3	30.264750E-3
-18.000007E-3	30.630849E-3	30.980200E-3	31.051390E-3	30.115606E-3
-17.399997E-3	30.584402E-3	31.030294E-3	31.154621E-3	30.164709E-3
-16.800001E-3	30.590074E-3	31.026669E-3	31.267606E-3	30.321360E-3
-16.200006E-3	30.697417E-3	30.978240E-3	31.377610E-3	30.463843E-3
-15.599996E-3	30.816812E-3	30.885823E-3	31.375129E-3	30.463435E-3
-15.000001E-3	30.967638E-3	30.797647E-3	31.329725E-3	30.469658E-3
-14.400005E-3	31.048728E-3	30.678362E-3	31.255174E-3	30.550273E-3
-13.799995E-3	31.096753E-3	30.669507E-3	31.149559E-3	30.582689E-3
-13.200000E-3	31.150838E-3	30.605001E-3	31.071927E-3	30.685214E-3
-12.600005E-3	31.077584E-3	30.603100E-3	31.047260E-3	30.821944E-3
-11.999995E-3	31.109830E-3	30.563967E-3	31.038413E-3	31.000361E-3
-11.399999E-3	31.145176E-3	30.569376E-3	31.059999E-3	31.015156E-3
-10.800004E-3	31.161327E-3	30.528443E-3	31.028982E-3	30.901572E-3
-10.199994E-3	31.219579E-3	30.543888E-3	31.000243E-3	30.775866E-3
-9.5999986E-3	31.316936E-3	30.494852E-3	30.947428E-3	30.686971E-3
-9.0000033E-3	31.419631E-3	30.495631E-3	30.918077E-3	30.664381E-3
-8.3999932E-3	31.427149E-3	30.469237E-3	30.846102E-3	30.673100E-3
-7.7999979E-3	31.422760E-3	30.400932E-3	30.756453E-3	30.642584E-3
-7.2000027E-3	31.293880E-3	30.263307E-3	30.599242E-3	30.541286E-3
-6.5999925E-3	31.220172E-3	30.193558E-3	30.513857E-3	30.426122E-3
-5.9999973E-3	31.148899E-3	30.125199E-3	30.583706E-3	30.295338E-3
-5.4000020E-3	31.062905E-3	30.187374E-3	30.605163E-3	30.176112E-3
-4.7999918E-3	31.001672E-3	30.278791E-3	30.739782E-3	30.228930E-3
-4.1999966E-3	30.961676E-3	30.407131E-3	30.845257E-3	30.416690E-3
-3.6000013E-3	30.969912E-3	30.490439E-3	30.875210E-3	30.498814E-3
-3.0000061E-3	30.977599E-3	30.537792E-3	30.918710E-3	30.540735E-3
-2.3999959E-3	30.965753E-3	30.613704E-3	30.940311E-3	30.584704E-3
-1.8000007E-3	30.929521E-3	30.655017E-3	30.912092E-3	30.571721E-3
-1.2000054E-3	30.934844E-3	30.792210E-3	30.953124E-3	30.641858E-3
-599.99526E-6	30.891409E-3	30.769700E-3	30.941270E-3	30.719455E-3
0.0000000E+0	30.785309E-3	30.775325E-3	30.990800E-3	30.880937E-3
599.99526E-6	30.718610E-3	30.831220E-3	31.105625E-3	31.038515E-3
1.2000054E-3	30.633904E-3	30.826872E-3	31.198550E-3	31.025685E-3
1.8000007E-3	30.609319E-3	30.866355E-3	31.330455E-3	30.834641E-3
2.3999959E-3	30.693585E-3	30.938083E-3	31.324908E-3	30.743223E-3
3.0000061E-3	30.774107E-3	31.016892E-3	31.293426E-3	30.716952E-3
3.6000013E-3	30.869504E-3	31.117959E-3	31.192409E-3	30.685235E-3
4.1999966E-3	30.970709E-3	31.157048E-3	31.097142E-3	30.676762E-3
4.8000067E-3	30.995417E-3	31.130234E-3	31.030659E-3	30.672014E-3
5.4000020E-3	31.060480E-3	31.022150E-3	31.034708E-3	30.581692E-3
5.9999973E-3	31.085871E-3	30.899463E-3	31.018190E-3	30.400762E-3
6.6000074E-3	31.099081E-3	30.773362E-3	31.040169E-3	30.223241E-3
7.2000027E-3	31.052927E-3	30.714113E-3	31.051332E-3	30.221798E-3
7.7999979E-3	31.086480E-3	30.705240E-3	30.901588E-3	30.310951E-3
8.4000081E-3	31.044059E-3	30.699329E-3	30.815573E-3	30.475277E-3
9.0000033E-3	31.121068E-3	30.673657E-3	30.727280E-3	30.527910E-3
9.5999986E-3	31.117680E-3	30.681955E-3	30.625023E-3	30.563340E-3
10.200009E-3	31.136936E-3	30.696917E-3	30.466160E-3	30.571086E-3
10.800004E-3	31.156925E-3	30.672271E-3	30.463150E-3	30.563990E-3
11.399999E-3	31.212555E-3	30.652951E-3	30.528024E-3	30.604577E-3
11.999995E-3	31.268988E-3	30.614959E-3	30.671889E-3	30.718200E-3
12.600005E-3	31.348631E-3	30.549774E-3	30.746046E-3	30.886151E-3
13.200000E-3	31.401746E-3	30.421818E-3	30.797426E-3	31.028949E-3
13.799995E-3	31.436373E-3	30.348910E-3	30.804947E-3	30.948225E-3
14.400005E-3	31.480554E-3	30.287396E-3	30.841380E-3	30.850016E-3
15.000001E-3	31.429112E-3	30.305369E-3	30.832021E-3	30.758558E-3
15.599996E-3	31.339236E-3	30.478949E-3	30.832348E-3	30.733813E-3
16.200006E-3	31.276044E-3	30.547053E-3	30.849982E-3	30.686738E-3
16.800001E-3	31.179687E-3	30.638739E-3	30.889582E-3	30.638391E-3
17.399997E-3	31.085916E-3	30.759821E-3	31.038612E-3	30.628599E-3
18.000007E-3	31.044981E-3	30.804679E-3	31.101661E-3	30.598361E-3
18.600002E-3	30.890033E-3	30.778492E-3	31.241359E-3	30.514477E-3
19.199997E-3	30.876387E-3	30.832134E-3	31.292774E-3	30.436536E-3
19.800007E-3	30.853407E-3	30.760955E-3	31.275373E-3	30.402353E-3
20.400003E-3	30.829256E-3	30.790005E-3	31.098409E-3	30.312300E-3
20.999998E-3	30.877531E-3	30.786464E-3	31.106856E-3	30.335376E-3
21.600008E-3	30.969210E-3	30.990403E-3	31.090172E-3	30.441960E-3
22.200003E-3	31.007508E-3	31.061877E-3	31.079438E-3	30.563740E-3
22.799999E-3	30.970244E-3	31.136384E-3	31.081839E-3	30.652313E-3
23.400009E-3	30.909831E-3	31.243159E-3	31.049887E-3	30.653004E-3
24.000004E-3	30.904220E-3	31.139014E-3	31.031508E-3	30.661685E-3
24.599999E-3	30.816836E-3	31.191219E-3	31.045211E-3	30.629808E-3
25.200009E-3	30.744825E-3	31.180523E-3	31.041082E-3	30.645104E-3
25.800005E-3	30.680116E-3	31.090707E-3	31.024370E-3	30.736884E-3
26.400000E-3	30.646278E-3	30.992011E-3	30.941248E-3	30.806933E-3
26.999995E-3	30.546170E-3	30.902777E-3	30.865774E-3	30.922338E-3
27.600005E-3	30.558240E-3	30.790769E-3	30.769844E-3	31.044541E-3
28.200001E-3	30.663930E-3	30.752063E-3	30.658551E-3	31.120516E-3
28.799996E-3	30.709332E-3	30.685997E-3	30.578751E-3	31.084703E-3
29.400006E-3	30.847140E-3	30.690107E-3	30.540580E-3	30.933123E-3
30.000001E-3	30.961957E-3	30.688388E-3	30.583626E-3	30.876620E-3
30.599996E-3	31.014055E-3	30.674528E-3	30.674268E-3	30.812752E-3
31.200007E-3	31.048931E-3	30.673066E-3	30.815136E-3	30.817110E-3
31.800002E-3	31.068701E-3	30.732263E-3	30.867923E-3	30.751664E-3
32.399997E-3	31.084618E-3	30.719077E-3	30.891323E-3	30.716503E-3
33.000007E-3	31.076087E-3	30.671064E-3	30.903177E-3	30.736046E-3
33.600003E-3	31.050229E-3	30.671071E-3	30.924501E-3	30.697355E-3
34.199998E-3	31.092592E-3	30.573448E-3	30.915232E-3	30.616950E-3
34.800008E-3	31.081611E-3	30.494489E-3	30.924147E-3	30.425021E-3
35.400003E-3	31.127024E-3	30.441755E-3	30.934324E-3	30.294616E-3
35.999998E-3	31.137999E-3	30.352497E-3	30.976288E-3	30.291021E-3
36.600009E-3	31.235393E-3	30.333145E-3	31.025182E-3	30.410508E-3
37.200004E-3	31.301375E-3	30.307710E-3	31.159882E-3	30.529773E-3
37.799999E-3	31.354215E-3	30.279720E-3	31.314835E-3	30.622615E-3
38.400009E-3	31.369276E-3	30.341059E-3	31.444870E-3	30.639283E-3
39.000005E-3	31.293627E-3	30.393049E-3	31.416275E-3	30.646129E-3
39.600000E-3	31.176778E-3	30.477121E-3	31.316556E-3	30.665448E-3
40.200010E-3	31.099118E-3	30.528340E-3	31.217422E-3	30.657893E-3
40.800005E-3	31.031579E-3	30.598851E-3	31.106515E-3	30.707378E-3
41.400000E-3	30.948604E-3	30.655889E-3	31.108020E-3	30.774124E-3
41.999996E-3	30.911056E-3	30.668121E-3	31.083887E-3	30.879097E-3
42.600006E-3	30.937241E-3	30.719012E-3	31.047408E-3	31.040076E-3
43.200001E-3	30.984471E-3	30.710362E-3	31.085959E-3	31.120257E-3
43.799996E-3	31.030862E-3	30.758729E-3	31.098958E-3	31.119246E-3
44.400007E-3	31.034946E-3	30.798547E-3	31.094730E-3	30.991629E-3
45.000002E-3	30.915424E-3	30.821119E-3	31.041378E-3	30.860150E-3
45.599997E-3	30.862683E-3	30.805048E-3	30.939700E-3	30.817911E-3
46.200007E-3	30.785339E-3	30.773256E-3	30.793920E-3	30.720575E-3
46.800002E-3	30.683732E-3	30.745760E-3	30.677065E-3	30.696785E-3
47.399998E-3	30.619219E-3	30.766992E-3	30.673882E-3	30.764276E-3
48.000008E-3	30.576922E-3	30.823886E-3	30.723857E-3	30.769018E-3
48.600003E-3	30.663254E-3	30.909037E-3	30.694719E-3	30.744415E-3
49.199998E-3	30.753227E-3	30.958455E-3	30.715266E-3	30.664844E-3
49.800009E-3	30.939201E-3	31.104105E-3	30.751288E-3	30.543471E-3
50.400004E-3	30.997861E-3	31.094905E-3	30.754361E-3	30.417312E-3
50.999999E-3	31.003261E-3	31.062802E-3	30.787271E-3	30.333010E-3
51.600009E-3	31.034632E-3	30.975102E-3	30.789031E-3	30.380413E-3
52.200004E-3	31.083995E-3	30.940261E-3	30.791182E-3	30.490493E-3
52.800000E-3	31.100022E-3	30.759739E-3	30.769700E-3	30.597307E-3
53.400010E-3	31.090869E-3	30.690385E-3	30.809116E-3	30.616954E-3
54.000005E-3	31.097153E-3	30.642565E-3	30.831285E-3	30.650087E-3
54.600000E-3	31.084578E-3	30.597843E-3	30.878291E-3	30.663403E-3
55.200011E-3	31.089200E-3	30.546660E-3	30.953396E-3	30.681394E-3
55.800006E-3	31.171354E-3	30.523146E-3	31.026097E-3	30.668465E-3
56.400001E-3	31.295184E-3	30.553818E-3	31.099798E-3	30.716479E-3
57.000011E-3	31.350151E-3	30.558810E-3	31.184291E-3	30.807307E-3
57.600006E-3	31.406805E-3	30.526854E-3	31.231077E-3	41.789629E-3
58.200002E-3	31.389631E-3	30.496394E-3	42.323638E-3	42.052269E-3
58.799997E-3	31.262606E-3	30.492976E-3	42.457078E-3	42.336173E-3
59.400007E-3	31.150276E-3	30.461695E-3	42.607583E-3	42.525671E-3
60.000002E-3	31.034710E-3	30.399483E-3	42.638961E-3	42.649914E-3
60.599998E-3	30.982682E-3	30.341964E-3	42.782664E-3	42.692605E-3
61.200008E-3	30.950055E-3	30.304374E-3	42.909354E-3	42.778127E-3
61.800003E-3	30.879293E-3	30.233512E-3	43.027267E-3	42.928323E-3
62.399998E-3	30.848844E-3	30.219637E-3	43.234915E-3	43.090470E-3
63.000008E-3	30.892191E-3	30.334504E-3	43.372277E-3	43.235343E-3
63.600004E-3	30.863365E-3	30.391788E-3	43.709580E-3	43.390717E-3
64.199999E-3	30.864071E-3	30.519398E-3	43.856356E-3	43.537743E-3
64.800009E-3	30.858597E-3	30.646157E-3	44.009428E-3	43.655831E-3
65.400004E-3	30.815989E-3	30.665450E-3	44.135720E-3	43.715551E-3
66.000000E-3	30.717496E-3	30.701656E-3	44.268150E-3	43.795984E-3
66.600010E-3	30.661428E-3	30.736789E-3	44.404544E-3	43.860506E-3
67.200005E-3	30.510440E-3	30.697592E-3	44.523384E-3	43.927506E-3
67.800000E-3	30.490335E-3	30.709380E-3	44.622522E-3	44.096228E-3
68.400010E-3	30.514294E-3	30.724715E-3	44.692032E-3	44.355255E-3
69.000006E-3	30.607022E-3	30.749757E-3	44.831529E-3	44.614639E-3
69.600001E-3	30.712040E-3	30.780489E-3	44.855159E-3	44.904612E-3
70.200011E-3	30.839624E-3	30.730929E-3	44.930600E-3	45.072224E-3
70.800006E-3	30.881057E-3	30.773563E-3	45.174502E-3	45.266218E-3
71.400002E-3	30.957822E-3	30.802647E-3	45.392703E-3	45.444310E-3
72.000012E-3	30.988595E-3	30.917611E-3	45.636915E-3	45.575429E-3
72.600007E-3	30.972004E-3	30.977536E-3	45.889363E-3	45.764145E-3
73.200002E-3	30.985527E-3	31.030834E-3	46.099816E-3	45.941364E-3
73.799998E-3	30.957641E-3	31.035874E-3	46.269935E-3	46.238586E-3
74.400008E-3	30.988194E-3	31.047594E-3	46.434037E-3	46.494268E-3
75.000003E-3	30.994590E-3	30.980444E-3	46.613924E-3	46.810806E-3
75.599998E-3	31.008886E-3	30.910941E-3	46.742260E-3	46.989314E-3
76.200008E-3	31.056795E-3	30.829038E-3	46.889063E-3	46.953835E-3
76.800004E-3	31.117348E-3	30.733729E-3	46.960134E-3	46.972837E-3
77.399999E-3	31.223219E-3	30.657075E-3	47.132835E-3	47.055781E-3
78.000009E-3	31.341258E-3	30.688342E-3	47.432847E-3	47.190242E-3
78.600004E-3	31.350851E-3	30.646123E-3	47.597677E-3	47.332417E-3
79.200000E-3	31.327046E-3	30.638155E-3	47.848448E-3	47.510006E-3
79.800010E-3	31.292900E-3	30.507121E-3	48.148442E-3	47.631629E-3
80.400005E-3	31.192224E-3	30.520201E-3	48.360076E-3	47.757078E-3
81.000000E-3	31.075232E-3	30.459721E-3	48.549321E-3	47.782112E-3
81.600010E-3	31.031117E-3	30.443110E-3	48.765916E-3	47.722336E-3
82.200006E-3	30.963579E-3	30.432716E-3	48.894539E-3	47.754977E-3
82.800001E-3	30.937703E-3	41.354425E-3	48.996408E-3	47.884792E-3
83.400011E-3	30.914104E-3	48.296839E-3	49.033597E-3	48.109975E-3
84.000006E-3	30.917473E-3	48.398435E-3	49.156688E-3	48.429087E-3
84.600002E-3	30.922413E-3	48.499294E-3	49.240075E-3	48.673257E-3
85.200012E-3	42.009786E-3	48.549578E-3	49.323589E-3	48.851550E-3
85.800007E-3	49.295481E-3	48.705153E-3	49.493395E-3	49.028169E-3
86.400002E-3	49.406391E-3	48.876174E-3	49.666543E-3	49.157213E-3
87.000012E-3	49.560223E-3	49.034901E-3	49.776640E-3	49.314436E-3
87.600008E-3	49.686521E-3	49.236864E-3	49.953382E-3	49.525291E-3
88.200003E-3	49.791705E-3	49.521092E-3	50.154608E-3	49.725540E-3
88.799998E-3	49.822442E-3	49.687386E-3	50.240520E-3	49.994398E-3
89.400008E-3	49.900576E-3	49.935609E-3	50.364457E-3	50.287552E-3
90.000004E-3	49.955245E-3	50.149702E-3	50.484437E-3	50.536405E-3
90.599999E-3	50.131906E-3	50.270975E-3	50.620340E-3	50.724167E-3
91.200009E-3	50.290097E-3	50.455444E-3	50.715894E-3	50.814237E-3
91.800004E-3	50.600223E-3	50.611302E-3	50.798655E-3	50.892778E-3
92.399999E-3	50.839294E-3	50.789949E-3	50.874222E-3	50.899763E-3
93.000010E-3	51.061153E-3	50.946526E-3	50.951991E-3	50.969481E-3
93.600005E-3	51.198028E-3	51.089510E-3	51.003519E-3	51.104903E-3
94.200000E-3	51.445305E-3	51.279876E-3	51.089957E-3	51.243231E-3
94.800010E-3	51.593710E-3	51.398721E-3	51.221572E-3	51.400609E-3
95.400006E-3	51.787443E-3	51.638085E-3	51.385727E-3	51.535606E-3
96.000001E-3	51.862374E-3	51.921990E-3	51.622678E-3	51.695686E-3
96.600011E-3	51.990207E-3	52.083679E-3	51.831778E-3	51.810715E-3
97.200006E-3	52.126527E-3	52.222628E-3	52.020371E-3	51.900350E-3
97.800002E-3	52.315854E-3	52.265149E-3	52.265421E-3	51.946077E-3
98.400012E-3	52.449189E-3	52.323487E-3	52.419599E-3	51.955406E-3
99.000007E-3	52.635632E-3	52.351702E-3	52.605182E-3	52.003883E-3
99.600002E-3	52.748125E-3	52.427951E-3	52.709896E-3	52.155286E-3
100.20000E-3	52.915629E-3	52.545991E-3	52.843578E-3	52.343890E-3
100.80001E-3	53.132594E-3	52.710503E-3	52.977737E-3	52.603304E-3
101.40002E-3	53.343680E-3	52.903663E-3	53.116340E-3	52.813586E-3
102.00000E-3	53.531803E-3	53.041883E-3	53.245962E-3	53.069867E-3
102.60001E-3	53.777739E-3	53.078622E-3	53.447757E-3	53.270839E-3
103.20002E-3	53.960029E-3	53.283598E-3	53.600911E-3	53.386815E-3
103.80000E-3	54.114331E-3	53.467233E-3	53.774476E-3	53.569198E-3
104.40001E-3	54.147322E-3	53.631801E-3	53.976975E-3	53.700317E-3
105.00002E-3	54.159842E-3	53.606547E-3	54.206453E-3	53.856436E-3
105.60000E-3	54.183625E-3	53.653177E-3	54.443084E-3	54.051090E-3
106.20001E-3	54.306827E-3	53.791218E-3	54.678489E-3	54.217122E-3
106.80002E-3	54.439798E-3	53.984277E-3	54.899286E-3	54.494843E-3
107.40000E-3	54.523032E-3	54.232489E-3	55.082798E-3	54.770663E-3
108.00001E-3	54.671511E-3	54.560170E-3	55.162810E-3	55.002157E-3
108.60002E-3	54.812614E-3	54.791141E-3	55.264119E-3	55.135775E-3
109.20000E-3	54.972652E-3	54.976873E-3	55.345520E-3	55.211358E-3
109.80001E-3	55.164725E-3	55.128023E-3	55.337805E-3	55.242624E-3
110.40002E-3	55.219810E-3	55.295467E-3	55.495676E-3	55.266775E-3
111.00000E-3	55.373859E-3	55.384174E-3	55.588972E-3	55.419341E-3
111.60001E-3	55.368781E-3	55.614367E-3	55.762496E-3	55.513460E-3
112.19999E-3	55.455316E-3	55.779949E-3	55.851556E-3	55.698320E-3
112.80000E-3	55.533685E-3	55.933733E-3	55.952389E-3	55.855177E-3
113.40001E-3	55.675618E-3	56.182161E-3	56.145892E-3	55.972658E-3
113.99999E-3	55.875365E-3	56.420092E-3	56.297597E-3	56.011930E-3
114.60000E-3	56.129575E-3	56.661725E-3	56.425337E-3	56.027126E-3
115.20001E-3	56.198239E-3	56.854658E-3	56.502435E-3	56.060981E-3
115.79999E-3	56.583416E-3	57.006113E-3	56.611042E-3	56.115974E-3
116.40000E-3	56.782544E-3	57.044029E-3	56.721307E-3	56.291185E-3
117.00001E-3	56.952395E-3	57.059620E-3	56.851286E-3	56.548893E-3
117.59999E-3	57.146389E-3	57.055190E-3	56.850024E-3	56.791935E-3
118.20000E-3	57.308793E-3	57.175845E-3	56.915436E-3	57.045314E-3
118.80001E-3	57.428591E-3	57.288110E-3	56.966636E-3	57.190929E-3
119.39999E-3	57.561170E-3	57.389803E-3	57.096940E-3	57.347286E-3
120.00000E-3	57.715055E-3	57.530079E-3	57.312902E-3	57.510067E-3
120.60001E-3	57.872321E-3	57.670832E-3	57.571098E-3	57.677336E-3
121.20000E-3	58.023587E-3	57.811931E-3	57.773229E-3	57.875820E-3
121.80001E-3	58.244254E-3	57.913914E-3	58.020562E-3	58.053222E-3
122.40002E-3	58.460373E-3	58.044400E-3	58.222629E-3	58.346294E-3
123.00000E-3	58.667116E-3	58.004931E-3	58.388025E-3	58.632541E-3
123.60001E-3	58.854185E-3	57.946548E-3	58.550946E-3	58.826834E-3
124.20002E-3	59.092302E-3	58.150426E-3	58.723878E-3	58.926057E-3
124.80000E-3	59.312042E-3	58.407273E-3	58.857236E-3	59.010923E-3
125.40001E-3	59.466660E-3	58.761507E-3	58.961861E-3	59.056539E-3
126.00002E-3	59.574485E-3	59.062373E-3	59.166469E-3	59.122764E-3
126.60000E-3	59.676066E-3	59.298560E-3	59.297111E-3	59.301831E-3
127.20001E-3	59.747394E-3	59.405457E-3	59.491515E-3	59.423767E-3
127.80002E-3	59.816089E-3	59.608590E-3	59.691537E-3	59.578784E-3
128.40000E-3	59.894793E-3	59.712611E-3	59.883498E-3	59.671819E-3
129.00001E-3	60.002852E-3	59.852324E-3	60.188137E-3	59.797391E-3
129.60002E-3	60.068537E-3	60.040116E-3	60.408205E-3	59.804820E-3
130.20000E-3	60.130846E-3	60.239121E-3	60.666982E-3	59.831765E-3
130.80001E-3	60.315434E-3	60.531784E-3	60.745031E-3	59.850790E-3
131.40002E-3	60.434200E-3	60.754471E-3	60.852803E-3	59.967175E-3
132.00000E-3	60.591612E-3	60.982537E-3	60.897689E-3	60.252137E-3
132.60001E-3	60.741227E-3	61.051186E-3	60.977098E-3	60.504716E-3
133.20002E-3	60.884904E-3	61.042607E-3	61.086036E-3	60.721997E-3
133.80000E-3	61.008826E-3	61.061036E-3	61.201543E-3	60.925018E-3
134.40001E-3	61.126687E-3	61.098468E-3	61.286286E-3	61.089493E-3
135.00002E-3	61.262190E-3	61.240420E-3	61.449531E-3	61.227567E-3
135.60000E-3	61.411686E-3	61.331712E-3	61.508361E-3	61.347362E-3
136.20001E-3	61.467424E-3	61.362188E-3	61.643746E-3	61.533503E-3
136.80002E-3	61.615352E-3	61.516840E-3	61.801150E-3	61.754711E-3
137.40000E-3	61.692841E-3	61.680816E-3	61.886594E-3	62.007088E-3
138.00001E-3	61.761219E-3	61.742306E-3	61.983943E-3	62.321559E-3
138.60002E-3	61.831187E-3	61.918579E-3	62.007174E-3	62.517256E-3
139.20000E-3	61.944287E-3	61.941400E-3	62.080324E-3	62.665410E-3
139.80001E-3	62.087245E-3	62.062845E-3	62.147107E-3	62.725954E-3
140.40002E-3	62.252551E-3	62.299121E-3	62.214248E-3	62.752061E-3
141.00000E-3	62.480696E-3	62.595978E-3	62.389791E-3	62.826142E-3
141.60001E-3	62.695555E-3	62.889449E-3	62.606037E-3	62.975496E-3
142.19999E-3	62.960289E-3	63.092768E-3	62.832698E-3	63.102238E-3
142.80000E-3	63.177072E-3	63.277222E-3	63.076943E-3	63.227773E-3
143.40001E-3	63.380398E-3	63.480988E-3	63.259974E-3	63.378841E-3
143.99999E-3	63.718356E-3	63.589647E-3	63.405044E-3	63.482583E-3
144.60000E-3	63.839197E-3	63.739702E-3	63.563623E-3	63.587107E-3
145.20001E-3	64.028040E-3	63.930109E-3	63.723199E-3	63.570015E-3
145.79999E-3	64.220257E-3	64.135186E-3	63.882723E-3	63.595988E-3
146.40000E-3	64.293616E-3	64.355575E-3	64.057365E-3	63.678496E-3
147.00001E-3	64.485721E-3	64.623259E-3	64.189002E-3	63.837573E-3
147.60000E-3	64.628385E-3	64.803340E-3	64.354338E-3	64.084962E-3
148.20001E-3	64.793646E-3	64.919375E-3	64.888477E-3	64.386792E-3
148.80002E-3	64.979084E-3	64.939380E-3	65.108426E-3	64.585499E-3
149.40000E-3	65.203972E-3	64.925268E-3	65.375634E-3	64.759463E-3
150.00001E-3	65.413795E-3	64.991079E-3	65.594368E-3	64.921059E-3
