Experiment	Sweeper	
Saved Date	11.07.2023 17:58:47	
User		
Date		
Start time	11.07.2023 17:35:09	
Sweep channel: Name	Output 3 (V)	
Sweep channel: Start (V)	-250E-3	
Sweep channel: Stop (V)	250E-3	
Sweep channel: Points	201	
Sweep channel: Max slew rate (V/s)	Inf	
Sweep channel: Initial settling time (s)	20E+3	
Sweep channel: End settling time (s)	10E+0	
Sweep channel: Backward sweep	TRUE	
Sweep channel: Number of sweeps	5	
Sweep channel: Reset	FALSE	
Step channel 1: Name	Output 2 (V)	
Step channel 1: Start (V)	0E+0	
Step channel 1: Stop (V)	0E+0	
Step channel 1: Points	5	
Step channel 1: Max slew rate (V/s)	10E+0	
Step channel 1:  Initial settling time (s)	2E+0	
Step channel 1: End settling time (s)	2E+3	
Step channel 1: Backward sweep	FALSE	
Step channel 1: Reset	FALSE	
Sweep Type	2D-Both RT	
Acquire channels	Input 1 (V);LI Demod 3 X (V)	
Filter type	None	
Order		
Cutoff frq		

[DATA]
Output 3 Setp. (V)	Input 1 [00001] (V)	LI Demod 3 X [00001] (V)	Input 1 [00002] (V)	LI Demod 3 X [00002] (V)	Input 1 [00003] (V)	LI Demod 3 X [00003] (V)	Input 1 [00004] (V)	LI Demod 3 X [00004] (V)	Input 1 [00005] (V)	LI Demod 3 X [00005] (V)	Input 1 [00001] [bwd] (V)	LI Demod 3 X [00001] [bwd] (V)	Input 1 [00002] [bwd] (V)	LI Demod 3 X [00002] [bwd] (V)	Input 1 [00003] [bwd] (V)	LI Demod 3 X [00003] [bwd] (V)	Input 1 [00004] [bwd] (V)	LI Demod 3 X [00004] [bwd] (V)	Input 1 [00005] [bwd] (V)	LI Demod 3 X [00005] [bwd] (V)
-250.00000E-3	-33.723317E-3	2.2459836E-3	-33.476107E-3	2.3556084E-3	-33.710290E-3	2.2975281E-3	-33.318188E-3	2.2627031E-3	-33.616353E-3	2.2652945E-3	-33.458363E-3	2.2985169E-3	-33.739034E-3	2.1926106E-3	-33.445306E-3	2.2661518E-3	-33.674046E-3	2.2610817E-3	-34.192987E-3	2.3090173E-3
-247.50000E-3	-33.063762E-3	2.2206316E-3	-32.773867E-3	2.1651103E-3	-33.005092E-3	2.2387987E-3	-32.626420E-3	2.2314989E-3	-32.955378E-3	2.2672485E-3	-32.791179E-3	2.1623634E-3	-33.074066E-3	2.2744390E-3	-32.672860E-3	2.2575499E-3	-33.004183E-3	2.2579096E-3	-33.507857E-3	2.2019064E-3
-245.00000E-3	-32.377370E-3	2.2479326E-3	-32.128103E-3	2.2599590E-3	-32.301009E-3	2.1918407E-3	-32.014385E-3	2.2376128E-3	-32.272868E-3	2.2575117E-3	-32.130845E-3	2.3396027E-3	-32.414105E-3	2.2453959E-3	-31.998366E-3	2.2567683E-3	-32.321040E-3	2.2751009E-3	-32.836560E-3	2.2465778E-3
-242.50001E-3	-31.697724E-3	2.2453535E-3	-31.474099E-3	2.2837995E-3	-31.649627E-3	2.2783298E-3	-31.324651E-3	2.2423496E-3	-31.614326E-3	2.2960606E-3	-31.471588E-3	2.1497523E-3	-31.816579E-3	2.2307027E-3	-31.305917E-3	2.2349504E-3	-31.619765E-3	2.2902396E-3	-32.104690E-3	2.2567594E-3
-239.99999E-3	-31.017108E-3	2.2425989E-3	-30.788301E-3	2.1943606E-3	-31.020753E-3	2.3073126E-3	-30.664548E-3	2.2658384E-3	-30.963145E-3	2.2678822E-3	-30.740229E-3	2.2839652E-3	-31.035950E-3	2.2883329E-3	-30.611228E-3	2.2100382E-3	-30.938093E-3	2.2355935E-3	-31.419579E-3	2.1867501E-3
-237.50000E-3	-30.353887E-3	2.2498511E-3	-30.114274E-3	2.2957153E-3	-30.343182E-3	2.2621045E-3	-30.007767E-3	2.2711316E-3	-30.294297E-3	2.2385162E-3	-30.049313E-3	2.2617839E-3	-30.361585E-3	2.2084254E-3	-29.946772E-3	2.2449356E-3	-30.224953E-3	2.2856493E-3	-30.718585E-3	2.3425652E-3
-235.00000E-3	-29.639686E-3	2.2409060E-3	-29.466080E-3	2.2401398E-3	-29.669708E-3	2.2024000E-3	-29.286997E-3	2.2607124E-3	-29.559594E-3	2.2260684E-3	-29.413609E-3	2.1881834E-3	-29.697608E-3	2.2671483E-3	-29.318932E-3	2.2014661E-3	-29.585050E-3	2.2871527E-3	-30.066408E-3	2.1550644E-3
-232.50000E-3	-28.933484E-3	2.2243429E-3	-28.747037E-3	2.1810587E-3	-28.971100E-3	2.2098145E-3	-28.654750E-3	2.2459666E-3	-28.911045E-3	2.2591827E-3	-28.828355E-3	2.2800572E-3	-28.967654E-3	2.2022205E-3	-28.592315E-3	2.1864420E-3	-28.899089E-3	2.2547508E-3	-29.409235E-3	2.2032857E-3
-230.00000E-3	-28.154524E-3	2.2515275E-3	-28.081102E-3	2.2929332E-3	-28.298315E-3	2.3048872E-3	-28.006721E-3	2.2317681E-3	-28.199948E-3	2.2230910E-3	-28.175330E-3	2.1847961E-3	-28.291974E-3	2.2156243E-3	-27.939951E-3	2.1808681E-3	-28.244566E-3	2.2766490E-3	-28.799843E-3	2.2847014E-3
-227.50001E-3	-27.403165E-3	2.2161168E-3	-27.391240E-3	2.2889632E-3	-27.652740E-3	2.2777927E-3	-27.432794E-3	2.2143021E-3	-27.532453E-3	2.2126806E-3	-27.459752E-3	2.2753945E-3	-27.631739E-3	2.2877629E-3	-27.258595E-3	2.1984105E-3	-27.551187E-3	2.2222300E-3	-28.101133E-3	2.2135344E-3
-224.99999E-3	-26.802598E-3	2.2310137E-3	-26.732985E-3	2.1461768E-3	-26.931545E-3	2.1638328E-3	-26.775084E-3	2.2187880E-3	-26.873894E-3	2.2054501E-3	-26.735615E-3	2.2529445E-3	-26.986541E-3	2.1145931E-3	-26.625229E-3	2.2289720E-3	-26.892614E-3	2.1795924E-3	-27.397659E-3	2.1462559E-3
-222.50000E-3	-26.272617E-3	2.2253268E-3	-26.068900E-3	2.2695803E-3	-26.258999E-3	2.2582458E-3	-26.152935E-3	2.2227932E-3	-26.240105E-3	2.2061658E-3	-26.068367E-3	2.1754273E-3	-26.232973E-3	2.2823233E-3	-25.902782E-3	2.2382061E-3	-26.291782E-3	2.1731819E-3	-26.746569E-3	2.2576959E-3
-220.00000E-3	-25.629718E-3	2.2181019E-3	-25.342468E-3	2.2333949E-3	-25.615826E-3	2.2832642E-3	-25.461363E-3	2.2424662E-3	-25.550030E-3	2.2380746E-3	-25.412660E-3	2.2684620E-3	-25.352621E-3	2.2754706E-3	-25.161389E-3	2.2507217E-3	-25.643252E-3	2.2432518E-3	-26.076768E-3	2.2671921E-3
-217.50000E-3	-24.935864E-3	2.2514774E-3	-24.809033E-3	2.2275392E-3	-24.936840E-3	2.1901764E-3	-24.756055E-3	2.2462986E-3	-24.918146E-3	2.2647094E-3	-24.738867E-3	2.2622894E-3	-24.720011E-3	2.1482583E-3	-24.455145E-3	2.2597429E-3	-24.970414E-3	2.2843911E-3	-25.432274E-3	2.1775474E-3
-215.00000E-3	-24.117103E-3	2.2424089E-3	-24.128186E-3	2.2495566E-3	-24.195833E-3	2.2209608E-3	-24.078965E-3	2.2186870E-3	-24.213679E-3	2.2374217E-3	-24.068115E-3	2.1580230E-3	-24.068195E-3	2.1753279E-3	-23.771903E-3	2.2599781E-3	-24.290826E-3	2.2570370E-3	-24.721844E-3	2.1937517E-3
-212.50001E-3	-23.467217E-3	2.2121165E-3	-23.434248E-3	2.2323951E-3	-23.544770E-3	2.2788297E-3	-23.410123E-3	2.2002694E-3	-23.690406E-3	2.1829526E-3	-23.423394E-3	2.2290605E-3	-23.367239E-3	2.3256901E-3	-23.110559E-3	2.2855550E-3	-23.624618E-3	2.1371541E-3	-24.046501E-3	2.2971740E-3
-210.00001E-3	-22.783235E-3	2.2250372E-3	-22.845432E-3	2.1677823E-3	-22.854418E-3	2.1631129E-3	-22.727840E-3	2.1981352E-3	-22.999136E-3	2.1815856E-3	-22.739718E-3	2.2452630E-3	-22.696855E-3	2.2652179E-3	-22.494927E-3	2.2568826E-3	-23.003494E-3	2.2228931E-3	-23.388641E-3	2.2120222E-3
-207.50000E-3	-22.075728E-3	2.2086122E-3	-22.188570E-3	2.2964780E-3	-22.221306E-3	2.2607867E-3	-22.052292E-3	2.2197617E-3	-22.353018E-3	2.2526998E-3	-22.073001E-3	2.1588984E-3	-22.001332E-3	2.1593273E-3	-21.816753E-3	2.2521752E-3	-22.289015E-3	2.2844595E-3	-22.693789E-3	2.1864709E-3
-205.00000E-3	-21.389423E-3	2.2119959E-3	-21.538023E-3	2.1351932E-3	-21.567587E-3	2.2422466E-3	-21.396000E-3	2.2220991E-3	-21.742916E-3	2.2620670E-3	-21.377126E-3	2.2416571E-3	-21.341743E-3	2.1447637E-3	-21.153867E-3	2.2244193E-3	-21.652812E-3	2.2312445E-3	-22.016317E-3	2.2951092E-3
-202.50000E-3	-20.761497E-3	2.2315877E-3	-20.858966E-3	2.2862428E-3	-20.918088E-3	2.1612588E-3	-20.690249E-3	2.2147871E-3	-21.075936E-3	2.1805780E-3	-20.631166E-3	2.2287495E-3	-20.651653E-3	2.2468907E-3	-20.532690E-3	2.1786771E-3	-20.991676E-3	2.1640973E-3	-21.354532E-3	2.1728138E-3
-200.00000E-3	-20.051148E-3	2.1965476E-3	-20.221896E-3	2.1402612E-3	-20.263471E-3	2.2992785E-3	-20.034697E-3	2.2038398E-3	-20.436727E-3	2.1379730E-3	-19.999260E-3	2.1496159E-3	-20.011660E-3	2.3022473E-3	-19.896148E-3	2.1568884E-3	-20.303654E-3	2.2142157E-3	-20.697137E-3	2.2570547E-3
-197.50001E-3	-19.332018E-3	2.1946814E-3	-19.562516E-3	2.2667826E-3	-19.607197E-3	2.1565277E-3	-19.355731E-3	2.2198879E-3	-19.776914E-3	2.2060950E-3	-19.452669E-3	2.2497487E-3	-19.350158E-3	2.1577820E-3	-19.281814E-3	2.1719290E-3	-19.634485E-3	2.2623672E-3	-20.010062E-3	2.1673832E-3
-194.99999E-3	-18.697076E-3	2.2236670E-3	-18.847058E-3	2.1180054E-3	-18.926088E-3	2.2568631E-3	-18.650617E-3	2.2280752E-3	-19.119183E-3	2.2704545E-3	-18.805897E-3	2.1780923E-3	-18.703038E-3	2.1211978E-3	-18.581130E-3	2.2625248E-3	-19.025823E-3	2.2348431E-3	-19.361315E-3	2.1858572E-3
-192.50000E-3	-18.077843E-3	2.2262607E-3	-18.237157E-3	2.2853792E-3	-18.303018E-3	2.1696247E-3	-18.029151E-3	2.2009127E-3	-18.430341E-3	2.2034631E-3	-18.036256E-3	2.1672719E-3	-18.003410E-3	2.2352196E-3	-18.011933E-3	2.2570638E-3	-18.339623E-3	2.1929163E-3	-18.779803E-3	2.2356275E-3
-190.00000E-3	-17.416203E-3	2.1961948E-3	-17.556360E-3	2.1008940E-3	-17.588686E-3	2.1635254E-3	-17.374616E-3	2.2264724E-3	-17.689086E-3	2.1804317E-3	-17.462134E-3	2.2753756E-3	-17.342042E-3	2.2753857E-3	-17.326748E-3	2.2288831E-3	-17.667616E-3	2.1542085E-3	-18.116469E-3	2.1417416E-3
-187.50000E-3	-16.734285E-3	2.1994824E-3	-16.897576E-3	2.2684641E-3	-16.916346E-3	2.2599751E-3	-16.703214E-3	2.2214158E-3	-17.039778E-3	2.1442345E-3	-16.834680E-3	2.1371399E-3	-16.683659E-3	2.1296528E-3	-16.548937E-3	2.1764792E-3	-16.964469E-3	2.1727877E-3	-17.399788E-3	2.2738355E-3
-185.00000E-3	-16.123658E-3	2.2019271E-3	-16.218666E-3	2.1806229E-3	-16.261941E-3	2.1532257E-3	-16.018527E-3	2.1828641E-3	-16.381955E-3	2.1598826E-3	-16.153809E-3	2.2005222E-3	-16.019890E-3	2.1741746E-3	-15.883356E-3	2.1586185E-3	-16.082451E-3	2.2295127E-3	-16.625453E-3	2.1107313E-3
-182.50000E-3	-15.474102E-3	2.2025097E-3	-15.549934E-3	2.1380764E-3	-15.575068E-3	2.2367586E-3	-15.356435E-3	2.1576190E-3	-15.730180E-3	2.1783479E-3	-15.545821E-3	2.2692599E-3	-15.369053E-3	2.2803836E-3	-15.219973E-3	2.1964365E-3	-15.396358E-3	2.2372922E-3	-15.865747E-3	2.2817911E-3
-180.00001E-3	-14.779913E-3	2.2025676E-3	-14.893137E-3	2.2620938E-3	-15.056394E-3	2.2299560E-3	-14.681354E-3	2.1440377E-3	-14.971239E-3	2.2279038E-3	-14.900648E-3	2.1461721E-3	-14.748774E-3	2.0988577E-3	-14.547708E-3	2.1872239E-3	-14.721388E-3	2.2472320E-3	-15.187053E-3	2.1146443E-3
-177.50001E-3	-14.064833E-3	2.2008454E-3	-14.243410E-3	2.1978966E-3	-14.404197E-3	2.1487908E-3	-14.006493E-3	2.1782957E-3	-14.309825E-3	2.2261359E-3	-14.212915E-3	2.2472662E-3	-14.047204E-3	2.2243054E-3	-13.928209E-3	2.2602589E-3	-14.069721E-3	2.1134228E-3	-14.502845E-3	2.2877767E-3
-175.00001E-3	-13.457418E-3	2.1786431E-3	-13.641124E-3	2.1203046E-3	-13.726769E-3	2.2271678E-3	-13.436538E-3	2.1961604E-3	-13.632570E-3	2.2323949E-3	-13.568362E-3	2.1852597E-3	-13.360282E-3	2.2115824E-3	-13.234693E-3	2.2509918E-3	-13.338345E-3	2.2014654E-3	-13.835828E-3	2.1082126E-3
-172.50000E-3	-12.803517E-3	2.1613254E-3	-12.971631E-3	2.2039961E-3	-13.093365E-3	2.2257287E-3	-12.760191E-3	2.1943653E-3	-13.009463E-3	2.2318915E-3	-12.882458E-3	2.1304295E-3	-12.693678E-3	2.1424440E-3	-12.590202E-3	2.2048522E-3	-12.617385E-3	2.2509056E-3	-13.185862E-3	2.2585993E-3
-170.00000E-3	-12.120833E-3	2.1786520E-3	-12.307340E-3	2.2207713E-3	-12.417595E-3	2.1306779E-3	-12.117637E-3	2.2365749E-3	-12.357997E-3	2.1896022E-3	-12.241772E-3	2.2418641E-3	-12.068178E-3	2.2632212E-3	-11.933967E-3	2.1785037E-3	-11.975086E-3	2.1220639E-3	-12.552163E-3	2.0844352E-3
-167.50000E-3	-11.436326E-3	2.1637471E-3	-11.627022E-3	2.1745097E-3	-11.756175E-3	2.1941524E-3	-11.472483E-3	2.2263066E-3	-11.713159E-3	2.1771456E-3	-11.570402E-3	2.1771612E-3	-11.428451E-3	2.0984698E-3	-11.274865E-3	2.1561070E-3	-11.297476E-3	2.2443749E-3	-11.877286E-3	2.2510313E-3
-164.99999E-3	-10.875486E-3	2.1771302E-3	-10.985556E-3	2.1332677E-3	-11.113825E-3	2.2185217E-3	-10.794257E-3	2.2245990E-3	-11.002979E-3	2.1696151E-3	-10.918875E-3	2.1210886E-3	-10.747325E-3	2.2498907E-3	-10.637377E-3	2.1691720E-3	-10.630125E-3	2.1357441E-3	-11.223411E-3	2.1349839E-3
-162.49999E-3	-10.189408E-3	2.1862597E-3	-10.291423E-3	2.1722389E-3	-10.457041E-3	2.1136173E-3	-10.087632E-3	2.1768354E-3	-10.373243E-3	2.1310234E-3	-10.260557E-3	2.2309776E-3	-10.116866E-3	2.1474727E-3	-9.9523487E-3	2.1467227E-3	-10.115735E-3	2.2005686E-3	-10.554514E-3	2.2198164E-3
-160.00000E-3	-9.5987823E-3	2.1905629E-3	-9.6549680E-3	2.2284952E-3	-9.8500019E-3	2.2070697E-3	-9.3439845E-3	2.1657762E-3	-9.6906833E-3	2.1554558E-3	-9.6358620E-3	2.2024882E-3	-9.4308807E-3	2.1737406E-3	-9.2939176E-3	2.1642947E-3	-9.5169209E-3	2.1631825E-3	-9.8850066E-3	2.2030952E-3
-157.50000E-3	-8.8905431E-3	2.1954782E-3	-8.9908028E-3	2.2150604E-3	-9.1532785E-3	2.1672978E-3	-8.6775590E-3	2.1918914E-3	-9.0149604E-3	2.2155100E-3	-8.8961832E-3	2.1308337E-3	-8.7767011E-3	2.2368720E-3	-8.6323852E-3	2.1739760E-3	-8.8270437E-3	2.2340671E-3	-9.2373155E-3	2.1109064E-3
-155.00000E-3	-8.2478654E-3	2.1786902E-3	-8.3689587E-3	2.1354505E-3	-8.5799340E-3	2.1463993E-3	-8.0000609E-3	2.1662065E-3	-8.3313175E-3	2.2499326E-3	-8.2312208E-3	2.1721406E-3	-8.1182020E-3	2.0978318E-3	-7.9878066E-3	2.1813442E-3	-8.1940349E-3	2.1050756E-3	-8.5767554E-3	2.1721474E-3
-152.50000E-3	-7.5595221E-3	2.1593678E-3	-7.7429954E-3	2.1587892E-3	-7.9465862E-3	2.2511012E-3	-7.3569613E-3	2.1813812E-3	-7.6804282E-3	2.1885899E-3	-7.5762193E-3	2.2346012E-3	-7.4581127E-3	2.1671439E-3	-7.3144399E-3	2.2092152E-3	-7.5410604E-3	2.2713623E-3	-7.8982273E-3	2.2235459E-3
-150.00001E-3	-6.8951715E-3	2.1784538E-3	-7.0569869E-3	2.1992398E-3	-7.3174140E-3	2.1281058E-3	-6.6860812E-3	2.1770159E-3	-7.0807105E-3	2.1136673E-3	-6.8984344E-3	2.1222932E-3	-6.7764488E-3	2.2603497E-3	-6.6444506E-3	2.1877016E-3	-6.9135046E-3	2.1142189E-3	-7.2291782E-3	2.2180215E-3
-147.50001E-3	-6.2405174E-3	2.1696866E-3	-6.5145399E-3	2.2493326E-3	-6.6306703E-3	2.2315169E-3	-5.9654973E-3	2.2001264E-3	-6.4107589E-3	2.1932586E-3	-6.2414049E-3	2.1957087E-3	-6.1025796E-3	2.2231177E-3	-5.9901224E-3	2.1930188E-3	-6.2676743E-3	2.2141014E-3	-6.5077008E-3	2.1962805E-3
-145.00001E-3	-5.5754390E-3	2.1758971E-3	-5.8646831E-3	2.1509733E-3	-5.9666825E-3	2.1483086E-3	-5.3219483E-3	2.1960679E-3	-5.8026868E-3	2.2375518E-3	-5.6017130E-3	2.2246419E-3	-5.6040939E-3	2.2408194E-3	-5.3507853E-3	2.1787307E-3	-5.6019477E-3	2.2087533E-3	-5.8589620E-3	2.1742322E-3
-142.50001E-3	-4.9492093E-3	2.1463407E-3	-5.2485843E-3	2.1257829E-3	-5.3457124E-3	2.2265613E-3	-4.6831411E-3	2.2138418E-3	-5.1461020E-3	2.1314526E-3	-4.9530487E-3	2.1045529E-3	-4.9301782E-3	2.2347227E-3	-4.6519060E-3	2.1883850E-3	-4.9479781E-3	2.1476026E-3	-5.1869480E-3	2.1675311E-3
-140.00000E-3	-4.2801579E-3	2.1670854E-3	-4.5509827E-3	2.1928614E-3	-4.6741841E-3	2.1360232E-3	-4.0006717E-3	2.1519377E-3	-4.4800835E-3	2.1767414E-3	-4.2854436E-3	2.2067698E-3	-4.2629750E-3	2.2728702E-3	-4.1333814E-3	2.1800948E-3	-4.2798091E-3	2.2501620E-3	-4.5259865E-3	2.1501968E-3
-137.50000E-3	-3.6086976E-3	2.1676484E-3	-3.9819526E-3	2.2289178E-3	-3.9824517E-3	2.2226833E-3	-3.3078522E-3	2.1385476E-3	-3.8109156E-3	2.2248453E-3	-3.6105714E-3	2.2378648E-3	-3.6061497E-3	2.2611972E-3	-3.4839746E-3	2.1900479E-3	-3.6024589E-3	2.0952446E-3	-3.9142412E-3	2.1757942E-3
-135.00001E-3	-2.9669043E-3	2.2024971E-3	-3.0768237E-3	2.1629052E-3	-3.2919021E-3	2.1545417E-3	-2.6921760E-3	2.1580793E-3	-3.1821118E-3	2.1041045E-3	-2.9669991E-3	2.1532143E-3	-2.9467277E-3	2.2856749E-3	-2.7274010E-3	2.1422345E-3	-2.9160753E-3	2.2565804E-3	-3.2738643E-3	2.1408619E-3
-132.49999E-3	-2.2824069E-3	2.1921117E-3	-2.4789083E-3	2.1427693E-3	-2.6534335E-3	2.1414203E-3	-2.0201078E-3	2.1603741E-3	-2.4509942E-3	2.2129884E-3	-2.3142039E-3	2.1263992E-3	-2.3148477E-3	2.3047836E-3	-2.0306823E-3	2.1713150E-3	-2.3188796E-3	2.1772562E-3	-2.6015181E-3	2.1582549E-3
-130.00000E-3	-1.6265346E-3	2.1335778E-3	-1.9929428E-3	2.2395542E-3	-2.0540913E-3	2.2334866E-3	-1.3624295E-3	2.2002549E-3	-1.7044491E-3	2.2053048E-3	-1.6420259E-3	2.2547992E-3	-1.6270472E-3	2.2740294E-3	-1.3974403E-3	2.1708752E-3	-1.6396830E-3	2.1233901E-3	-1.9654667E-3	2.1266467E-3
-127.50000E-3	-988.88250E-6	2.1824846E-3	-1.3684622E-3	2.1951131E-3	-1.3583081E-3	2.1321359E-3	-760.74473E-6	2.2253438E-3	-1.0444215E-3	2.1290251E-3	-942.19093E-6	2.2352631E-3	-985.49621E-6	2.2483475E-3	-731.39684E-6	2.1888902E-3	-984.86198E-6	2.2599485E-3	-1.3572827E-3	2.1287170E-3
-125.00000E-3	-313.54561E-6	2.1858250E-3	-572.21710E-6	2.1722808E-3	-689.69390E-6	2.1358004E-3	-109.97072E-6	2.1709085E-3	-469.38364E-6	2.2413803E-3	-319.99202E-6	2.1079618E-3	-326.82193E-6	2.2805082E-3	-54.971617E-6	2.1724494E-3	-338.18721E-6	2.1461109E-3	-671.08806E-6	2.1463730E-3
-122.50000E-3	326.64248E-6	2.1790224E-3	61.297636E-6	2.1374328E-3	-81.223792E-6	2.2185300E-3	517.15272E-6	2.1545994E-3	119.88534E-6	2.1043480E-3	320.02726E-6	2.1585955E-3	326.56602E-6	2.2283285E-3	604.42707E-6	2.1793661E-3	313.54744E-6	2.1287531E-3	-77.539640E-6	2.1505787E-3
-120.00000E-3	1.0039816E-3	2.1681241E-3	748.33963E-6	2.2064389E-3	615.79113E-6	2.2243951E-3	1.1973514E-3	2.1127544E-3	738.07553E-6	2.2229282E-3	983.64649E-6	2.2384715E-3	1.0628764E-3	2.2448846E-3	1.3880072E-3	2.1966314E-3	958.36655E-6	2.2791375E-3	625.77194E-6	2.1619215E-3
-117.50001E-3	1.6521151E-3	2.1583240E-3	1.4079994E-3	2.2318994E-3	1.2880664E-3	2.1763544E-3	1.8584152E-3	2.1426354E-3	1.4082257E-3	2.1666910E-3	1.6283905E-3	2.2055618E-3	1.7044867E-3	2.2734697E-3	2.0575181E-3	2.1683450E-3	1.6980409E-3	2.1762711E-3	1.2678438E-3	2.1706517E-3
-115.00001E-3	2.3336366E-3	2.1464443E-3	2.0323424E-3	2.1939091E-3	1.9402166E-3	2.1136142E-3	2.5232479E-3	2.1794385E-3	2.0479357E-3	2.1431136E-3	2.2537794E-3	2.1137919E-3	2.3104907E-3	2.2711263E-3	2.4869065E-3	2.1813198E-3	2.3022692E-3	2.0892944E-3	1.9949360E-3	2.1971411E-3
-112.50000E-3	3.0813194E-3	2.1459924E-3	2.6953723E-3	2.1808471E-3	2.6018717E-3	2.1330160E-3	3.1450407E-3	2.1854977E-3	2.7127429E-3	2.1791037E-3	2.8988863E-3	2.1629450E-3	2.9694021E-3	2.2786008E-3	3.1016392E-3	2.1871224E-3	2.9486490E-3	2.1998226E-3	2.6563322E-3	2.2325260E-3
-110.00000E-3	3.7017951E-3	2.1924831E-3	3.3938233E-3	2.1607808E-3	3.3811382E-3	2.1468005E-3	3.7967011E-3	2.2567541E-3	3.3536118E-3	2.1815302E-3	3.5493835E-3	2.2342580E-3	3.5949969E-3	2.2735614E-3	3.8105305E-3	2.1847489E-3	3.5396500E-3	2.2474711E-3	3.3053611E-3	2.2386713E-3
-107.50000E-3	4.4128946E-3	2.1839468E-3	4.0581203E-3	2.1291554E-3	4.0570120E-3	2.1467221E-3	4.4517783E-3	2.2080217E-3	3.9922656E-3	2.1785921E-3	4.2286171E-3	2.1775099E-3	4.2171050E-3	2.2756914E-3	4.5044194E-3	2.1891072E-3	4.1995612E-3	2.1983737E-3	3.9594048E-3	2.1843796E-3
-105.00000E-3	5.1020286E-3	2.1858001E-3	4.7076927E-3	2.1481016E-3	4.7091208E-3	2.1561761E-3	5.0713960E-3	2.2175470E-3	4.6786042E-3	2.1896500E-3	4.9222861E-3	2.1357879E-3	4.8222328E-3	2.2765142E-3	5.1391693E-3	2.2049837E-3	4.8897793E-3	2.0829893E-3	4.6344684E-3	2.1284767E-3
-102.50001E-3	5.6976499E-3	2.1919315E-3	5.4144501E-3	2.1585070E-3	5.3808019E-3	2.1617820E-3	5.7503479E-3	2.2540661E-3	5.4876790E-3	2.2200420E-3	5.6359381E-3	2.1942840E-3	5.5032303E-3	2.2124243E-3	5.8022547E-3	2.2257459E-3	5.5675283E-3	2.1575694E-3	5.2702175E-3	2.1929480E-3
-100.00001E-3	6.3663218E-3	2.1990677E-3	6.0828011E-3	2.1937664E-3	6.0585625E-3	2.1875179E-3	6.4452589E-3	2.2215864E-3	6.2314761E-3	2.1864064E-3	6.3871695E-3	2.2788877E-3	6.1659971E-3	2.1321918E-3	6.4752917E-3	2.2339837E-3	6.2533580E-3	2.2708054E-3	5.9529641E-3	2.2617269E-3
-97.499996E-3	7.0511261E-3	2.2300766E-3	6.7238980E-3	2.2085086E-3	6.7273397E-3	2.1915259E-3	7.1127103E-3	2.2276486E-3	6.9405776E-3	2.2710832E-3	7.0485198E-3	2.2429540E-3	6.8236846E-3	2.1844560E-3	7.1746884E-3	2.2410296E-3	6.9240057E-3	2.2984012E-3	6.6064815E-3	2.1939992E-3
-94.999999E-3	7.7113202E-3	2.2285585E-3	7.4076466E-3	2.2232074E-3	7.4410965E-3	2.2673034E-3	7.8138886E-3	2.2408855E-3	7.6049562E-3	2.1851240E-3	7.7375844E-3	2.1951101E-3	7.5150263E-3	2.3473946E-3	7.8549860E-3	2.2452835E-3	7.6141912E-3	2.2100175E-3	7.3224274E-3	2.2017404E-3
-92.500001E-3	8.3929664E-3	2.2761878E-3	8.1075765E-3	2.2536842E-3	8.1396177E-3	2.2873406E-3	8.4738219E-3	2.2628410E-3	8.2857609E-3	2.3629917E-3	8.4096361E-3	2.2397479E-3	8.2051195E-3	2.2106082E-3	8.5782139E-3	2.3004720E-3	8.2547497E-3	2.2061032E-3	8.0767535E-3	2.2812316E-3
-90.000004E-3	9.0749571E-3	2.2987032E-3	8.7877242E-3	2.3194929E-3	8.8377399E-3	2.2891590E-3	9.1785258E-3	2.3020238E-3	9.0050036E-3	2.2399127E-3	9.1473628E-3	2.2898340E-3	8.9646196E-3	2.3148870E-3	9.2334989E-3	2.3168351E-3	8.9705558E-3	2.3650790E-3	8.8627357E-3	2.3652664E-3
-87.500006E-3	9.8119332E-3	2.3643074E-3	9.4691422E-3	2.3639195E-3	9.5730228E-3	2.3163781E-3	9.9025611E-3	2.3522379E-3	9.6989172E-3	2.4052162E-3	9.8618809E-3	2.3667444E-3	9.6728895E-3	2.3494319E-3	9.9608470E-3	2.3653563E-3	9.6818283E-3	2.4017752E-3	9.5690098E-3	2.3433336E-3
-85.000008E-3	10.741873E-3	2.3967542E-3	10.189692E-3	2.4283172E-3	10.279917E-3	2.3724616E-3	10.594908E-3	2.3896212E-3	10.412637E-3	2.3521413E-3	10.560707E-3	2.4253628E-3	10.405371E-3	2.3423603E-3	10.724895E-3	2.3826384E-3	10.405939E-3	2.3336727E-3	10.303840E-3	2.3582885E-3
-82.500011E-3	11.458300E-3	2.4466834E-3	10.908580E-3	2.4452778E-3	11.046933E-3	2.4255191E-3	11.339552E-3	2.4395967E-3	11.170579E-3	2.4341650E-3	11.302768E-3	2.4857589E-3	11.145689E-3	2.4706703E-3	11.425984E-3	2.4510794E-3	11.137843E-3	2.3507441E-3	11.028325E-3	2.4007862E-3
-79.999998E-3	12.064005E-3	2.4893431E-3	11.659118E-3	2.4921393E-3	11.792090E-3	2.4942728E-3	12.140069E-3	2.4944951E-3	11.905645E-3	2.5522008E-3	12.041965E-3	2.5024556E-3	11.939559E-3	2.4853742E-3	12.133971E-3	2.4768549E-3	12.054925E-3	2.5433647E-3	11.834055E-3	2.5203696E-3
-77.500001E-3	12.811339E-3	2.5641678E-3	12.419744E-3	2.5381648E-3	12.572477E-3	2.5560141E-3	12.918525E-3	2.5550271E-3	12.746979E-3	2.5136063E-3	12.823568E-3	2.5462362E-3	12.664398E-3	2.5772129E-3	12.847388E-3	2.5903222E-3	12.590501E-3	2.6421654E-3	12.587608E-3	2.6468316E-3
-75.000003E-3	13.626430E-3	2.6352394E-3	13.188789E-3	2.6460080E-3	13.333804E-3	2.6346759E-3	13.729544E-3	2.6478246E-3	13.513481E-3	2.6514730E-3	13.645111E-3	2.6363253E-3	13.485265E-3	2.7000152E-3	13.677335E-3	2.6658925E-3	13.430855E-3	2.6592184E-3	13.403022E-3	2.6867064E-3
-72.500005E-3	14.452365E-3	2.7800456E-3	14.047190E-3	2.7909693E-3	14.163538E-3	2.8276376E-3	14.544624E-3	2.7518293E-3	14.354064E-3	2.8283861E-3	14.449243E-3	2.7372788E-3	14.323624E-3	2.7549632E-3	14.544310E-3	2.7892578E-3	14.281843E-3	2.6960818E-3	14.243999E-3	2.7444917E-3
-70.000008E-3	15.356530E-3	2.9454811E-3	14.952639E-3	2.9692319E-3	15.037584E-3	2.9779242E-3	15.424469E-3	2.9116031E-3	15.208296E-3	2.9574332E-3	15.314640E-3	2.9478085E-3	15.212025E-3	2.9871643E-3	15.420880E-3	2.9218758E-3	15.372878E-3	2.8755371E-3	15.108781E-3	2.9385812E-3
-67.500010E-3	16.298568E-3	3.1072116E-3	15.962586E-3	3.1253223E-3	15.987802E-3	3.1302781E-3	16.348004E-3	3.0971311E-3	16.145112E-3	3.0375733E-3	16.224457E-3	3.1222911E-3	16.135816E-3	3.0548663E-3	16.338689E-3	3.1173471E-3	16.122973E-3	3.1368784E-3	16.035015E-3	3.1528703E-3
-64.999998E-3	17.236054E-3	3.3257033E-3	17.008759E-3	3.3206281E-3	16.993888E-3	3.2586518E-3	17.355621E-3	3.3075952E-3	17.157378E-3	3.2972605E-3	17.178481E-3	3.3333944E-3	17.126121E-3	3.2800066E-3	17.300427E-3	3.3388750E-3	17.124910E-3	3.4051039E-3	17.140659E-3	3.3203883E-3
-62.500000E-3	18.358478E-3	3.6201768E-3	18.095491E-3	3.6001224E-3	18.050466E-3	3.5747334E-3	18.589111E-3	3.6123507E-3	18.248243E-3	3.5908367E-3	18.310620E-3	3.5987890E-3	18.191710E-3	3.6961145E-3	18.381342E-3	3.6251645E-3	18.166017E-3	3.6411863E-3	18.236486E-3	3.5408242E-3
-60.000002E-3	19.634165E-3	4.1079130E-3	19.365715E-3	4.0784650E-3	19.332133E-3	4.0717968E-3	19.875174E-3	4.1063167E-3	19.492924E-3	4.0746718E-3	19.620558E-3	4.0670778E-3	19.497717E-3	4.0494944E-3	19.661020E-3	4.0520132E-3	19.473212E-3	4.0374254E-3	19.535528E-3	4.1384362E-3
-57.500005E-3	21.196391E-3	4.8977700E-3	20.952297E-3	4.8738811E-3	20.908089E-3	4.8960075E-3	21.424325E-3	4.8798029E-3	21.014228E-3	4.8689381E-3	21.232547E-3	4.9038003E-3	21.082236E-3	4.8225522E-3	21.217111E-3	4.8648883E-3	21.036912E-3	4.7778306E-3	21.093532E-3	4.9430621E-3
-55.000007E-3	22.862269E-3	5.5149160E-3	22.571456E-3	5.5258623E-3	22.513956E-3	5.5733230E-3	23.100710E-3	5.4863333E-3	22.673301E-3	5.5250190E-3	22.841504E-3	5.5218427E-3	22.703476E-3	5.5478620E-3	22.793397E-3	5.5158031E-3	22.681382E-3	5.5203848E-3	22.711826E-3	5.5173431E-3
-52.500010E-3	24.275433E-3	5.6226072E-3	24.008660E-3	5.6096013E-3	23.912059E-3	5.5554197E-3	24.418158E-3	5.5960072E-3	24.115082E-3	5.6359549E-3	24.278386E-3	5.6173671E-3	24.096875E-3	5.6527704E-3	24.372058E-3	5.6104385E-3	24.072774E-3	5.6886761E-3	24.159078E-3	5.5518998E-3
-50.000012E-3	25.503347E-3	5.2070520E-3	25.281517E-3	5.2179424E-3	25.196416E-3	5.1777237E-3	25.643613E-3	5.1853489E-3	25.360702E-3	5.2713905E-3	25.530372E-3	5.1886798E-3	25.313661E-3	5.2470863E-3	25.621325E-3	5.2103591E-3	25.349636E-3	5.2292058E-3	25.412194E-3	5.2121356E-3
-47.499999E-3	26.685398E-3	4.4311932E-3	26.420180E-3	4.4477228E-3	26.338885E-3	4.4307937E-3	26.781406E-3	4.4553932E-3	26.514901E-3	4.4451915E-3	26.689453E-3	4.4723102E-3	26.248906E-3	4.4487668E-3	26.780445E-3	4.4485792E-3	26.498467E-3	4.3765074E-3	26.873099E-3	4.4862810E-3
-45.000002E-3	27.700575E-3	3.3734634E-3	27.431622E-3	3.3764809E-3	27.419491E-3	3.4396867E-3	27.868446E-3	3.4153818E-3	27.576778E-3	3.3296093E-3	27.762590E-3	3.3716059E-3	27.272465E-3	3.3967274E-3	27.819242E-3	3.4171075E-3	27.585480E-3	3.3985521E-3	27.971677E-3	3.3814996E-3
-42.500004E-3	28.739017E-3	2.0776091E-3	28.508928E-3	2.0755930E-3	28.440410E-3	2.1202255E-3	28.893428E-3	2.1067697E-3	28.645027E-3	2.1699371E-3	28.832434E-3	1.9124106E-3	28.294852E-3	2.0115012E-3	28.893489E-3	2.0907430E-3	28.678868E-3	2.1163709E-3	29.005347E-3	2.0181234E-3
-40.000007E-3	29.562432E-3	879.87835E-6	29.355247E-3	845.77338E-6	29.284265E-3	836.58571E-6	29.714487E-3	918.55222E-6	29.464433E-3	787.20745E-6	29.653966E-3	767.04874E-6	29.119821E-3	747.12548E-6	29.736916E-3	888.19250E-6	29.475767E-3	768.64159E-6	29.530697E-3	784.48415E-6
-37.500009E-3	29.962391E-3	272.84905E-6	29.700670E-3	233.51469E-6	29.695926E-3	226.48789E-6	30.109825E-3	293.88885E-6	29.849580E-3	382.66223E-6	29.973108E-3	315.06302E-6	29.500602E-3	329.44593E-6	30.139893E-3	277.11320E-6	29.852195E-3	345.46381E-6	29.911423E-3	258.32120E-6
-35.000011E-3	30.072177E-3	29.767001E-6	29.841268E-3	46.098958E-6	29.783474E-3	94.846633E-6	30.235553E-3	42.963395E-6	29.937351E-3	-6.7935343E-6	30.101895E-3	11.437506E-6	29.746849E-3	156.18266E-6	30.231854E-3	101.91063E-6	29.966442E-3	57.369631E-6	30.035198E-3	150.85052E-6
-32.499999E-3	30.193174E-3	-51.126888E-6	29.866835E-3	-21.835554E-6	29.852612E-3	74.383184E-6	30.262817E-3	1.0307153E-6	29.987169E-3	69.784837E-6	30.139910E-3	-7.8059547E-6	29.803954E-3	-42.654185E-6	30.297920E-3	8.1929056E-6	30.021748E-3	-57.193334E-6	30.066993E-3	-10.382038E-6
-30.000001E-3	30.198695E-3	-28.814336E-6	29.743291E-3	-44.703753E-6	29.855335E-3	47.115060E-6	30.305527E-3	-7.3420752E-6	30.029304E-3	51.688447E-6	30.137915E-3	75.007134E-6	29.814072E-3	-107.99796E-6	30.228207E-3	8.5964202E-6	30.014632E-3	105.64918E-6	30.079298E-3	-19.223420E-6
-27.500004E-3	30.174568E-3	-981.26691E-9	29.860621E-3	-23.820518E-6	29.858423E-3	-14.643702E-6	30.369619E-3	-6.1574560E-6	30.019021E-3	-78.534460E-6	30.148581E-3	2.1809001E-6	29.801913E-3	75.264601E-6	30.227356E-3	-9.8545961E-6	30.023996E-3	-50.875955E-6	30.093156E-3	-52.461422E-6
-25.000006E-3	30.078834E-3	18.301433E-6	29.896950E-3	-7.5757348E-6	29.874355E-3	-69.126778E-6	30.370755E-3	-19.603696E-6	30.030029E-3	97.428543E-6	30.131314E-3	-68.663125E-6	29.799981E-3	12.343970E-6	30.105520E-3	-7.9528882E-6	30.022481E-3	23.201841E-6	30.099409E-3	-15.638509E-6
-22.500008E-3	30.033696E-3	42.439307E-6	29.887157E-3	9.3971657E-6	29.879311E-3	-26.680282E-6	30.353162E-3	27.637556E-6	30.015292E-3	-94.865587E-6	30.093901E-3	18.794181E-6	29.770631E-3	-92.752613E-6	30.049589E-3	-14.665849E-6	30.052494E-3	50.664246E-6	30.073404E-3	71.522350E-6
-20.000011E-3	30.038489E-3	-2.6985856E-6	29.912004E-3	28.145228E-6	29.817959E-3	46.405738E-6	30.345950E-3	10.966663E-6	30.022828E-3	84.385945E-6	30.117739E-3	32.728502E-6	29.754518E-3	39.049813E-6	30.030444E-3	-21.523598E-6	30.030925E-3	-113.87131E-6	30.066360E-3	-770.90948E-9
-17.499998E-3	30.019889E-3	-72.442366E-6	29.914105E-3	62.110281E-6	29.841984E-3	44.626624E-6	30.369613E-3	-13.924085E-6	29.995235E-3	-83.529747E-6	30.144706E-3	39.080958E-6	29.958172E-3	73.175535E-6	30.021198E-3	-20.197678E-6	30.001635E-3	78.641293E-6	30.059054E-3	-67.178415E-6
-15.000001E-3	30.043826E-3	-60.079703E-6	29.892519E-3	46.476172E-6	29.842788E-3	-30.463918E-6	30.414160E-3	-33.345757E-6	29.981928E-3	87.836648E-6	30.104239E-3	4.7164967E-6	29.793521E-3	-82.851526E-6	30.002581E-3	-3.0647434E-6	30.001611E-3	-33.905555E-6	30.062027E-3	7.4374625E-6
-12.500003E-3	30.124729E-3	17.665023E-6	29.908087E-3	59.726925E-6	29.867951E-3	-48.608792E-6	30.429600E-3	-3.1298059E-6	30.031066E-3	-83.823303E-6	30.074453E-3	24.017230E-6	29.820068E-3	-90.779700E-6	29.944995E-3	23.701636E-6	30.017193E-3	-85.681546E-6	30.083941E-3	39.150353E-6
-10.000005E-3	30.030491E-3	25.379302E-6	29.936902E-3	10.357564E-6	29.899711E-3	-30.125642E-6	30.238926E-3	17.264383E-6	30.034309E-3	82.385537E-6	30.089218E-3	20.139167E-6	29.812578E-3	5.3261856E-6	29.977228E-3	13.860966E-6	30.002816E-3	88.051362E-6	30.105377E-3	-68.736517E-6
-7.5000077E-3	30.059099E-3	-301.04846E-9	29.881710E-3	-41.959247E-6	29.903652E-3	2.7372193E-6	30.228326E-3	-1.5696637E-6	30.033598E-3	-31.838514E-6	29.999703E-3	27.390881E-6	29.794700E-3	97.653923E-6	29.965609E-3	16.325634E-6	29.951746E-3	-41.802708E-6	30.108146E-3	-19.347919E-6
-5.0000101E-3	30.156316E-3	-75.548400E-6	29.838568E-3	-62.787505E-6	29.937744E-3	39.953040E-6	30.267514E-3	10.973142E-6	30.048603E-3	-39.386465E-6	29.977953E-3	21.723054E-6	29.788306E-3	92.845723E-6	29.976243E-3	2.2313466E-6	29.929539E-3	-97.083415E-6	30.147184E-3	65.395761E-6
-2.5000125E-3	30.176995E-3	-60.319708E-6	29.842049E-3	-48.516693E-6	29.948596E-3	65.567758E-6	30.143633E-3	-35.956171E-6	30.076727E-3	84.892847E-6	29.967738E-3	17.817738E-6	29.769128E-3	18.947379E-6	29.984621E-3	-6.8748968E-6	29.802371E-3	81.030172E-6	30.134939E-3	-85.364198E-6
0.0000000E+0	30.185685E-3	50.678736E-6	29.836357E-3	-6.1018804E-6	29.953659E-3	12.695847E-6	30.137371E-3	-60.222163E-6	30.079262E-3	-85.131833E-6	30.007748E-3	-23.311834E-6	29.783098E-3	-67.321758E-6	29.983368E-3	32.859094E-6	29.858371E-3	-40.852927E-6	30.157382E-3	75.500328E-6
2.4999976E-3	30.147741E-3	15.465836E-6	29.867411E-3	36.338915E-6	29.942999E-3	-10.233880E-6	30.126650E-3	-57.158810E-6	30.060437E-3	-63.545274E-6	30.137004E-3	-6.0400066E-6	29.781623E-3	-115.74039E-6	29.956646E-3	40.443978E-6	29.826464E-3	-115.68133E-6	30.180300E-3	-90.601163E-6
4.9999952E-3	30.185116E-3	-86.004169E-6	29.883295E-3	60.057002E-6	29.949438E-3	-13.781158E-6	30.171096E-3	-56.270816E-6	30.043416E-3	27.620017E-6	30.156538E-3	-21.193489E-6	29.776603E-3	-74.444142E-6	29.931143E-3	62.103842E-6	29.743152E-3	48.859114E-6	30.231856E-3	55.130728E-6
7.4999928E-3	30.132523E-3	-21.055264E-6	29.917326E-3	10.008913E-6	29.937848E-3	-19.734291E-6	30.103151E-3	-45.319688E-6	30.070476E-3	86.049564E-6	30.112628E-3	107.42995E-9	29.770983E-3	41.409694E-6	29.925201E-3	-40.951028E-6	29.753597E-3	-19.792851E-6	30.212902E-3	-84.386724E-6
9.9999905E-3	30.024184E-3	3.0859912E-6	29.909231E-3	-69.788119E-6	29.917903E-3	-4.5374877E-6	30.124845E-3	38.044887E-6	30.027125E-3	102.77356E-6	30.095585E-3	15.192198E-6	29.775213E-3	108.79696E-6	29.950481E-3	-64.964850E-6	29.758157E-3	-100.39644E-6	30.100051E-3	107.19073E-6
12.499988E-3	30.016329E-3	-71.782473E-6	29.893421E-3	-49.314200E-6	29.880386E-3	-9.4078823E-6	30.109946E-3	14.171743E-6	30.122690E-3	65.367989E-6	30.021939E-3	3.1209397E-6	29.771073E-3	2.3367418E-6	29.946513E-3	28.820416E-6	29.774059E-3	75.600132E-6	30.078826E-3	-49.444396E-6
14.999986E-3	30.000433E-3	54.721546E-6	29.893713E-3	43.045657E-6	29.869940E-3	-26.101899E-6	30.111978E-3	-64.154992E-6	30.118225E-3	43.057502E-6	30.018300E-3	-14.671555E-6	29.761074E-3	-129.70789E-6	29.912444E-3	39.805174E-6	29.758180E-3	-32.768963E-6	30.069107E-3	-32.581749E-6
17.499983E-3	30.031612E-3	-66.575587E-6	29.922126E-3	48.789319E-6	29.966665E-3	-31.004151E-6	30.091813E-3	-56.128385E-6	30.106548E-3	14.585510E-6	29.995086E-3	7.7998948E-6	29.762585E-3	-18.759103E-6	29.936407E-3	-67.226239E-6	29.745216E-3	-72.055329E-6	30.052532E-3	83.867591E-6
19.999981E-3	30.043459E-3	74.928728E-6	29.921917E-3	-70.490627E-6	29.917259E-3	-52.244493E-6	29.908944E-3	39.622188E-6	30.108128E-3	10.051963E-6	30.019846E-3	-16.140102E-6	29.774789E-3	86.463719E-6	29.970255E-3	-23.693281E-6	29.724900E-3	52.675390E-6	29.980000E-3	-86.917149E-6
22.500008E-3	30.029863E-3	-74.856369E-6	29.883329E-3	-24.782750E-6	29.967995E-3	-5.8210562E-6	29.941844E-3	-86.907487E-6	30.091250E-3	18.555389E-6	30.047365E-3	-19.721121E-6	29.771904E-3	-28.453729E-6	29.949447E-3	24.843537E-6	29.762881E-3	-117.31272E-6	30.025527E-3	10.743846E-6
25.000006E-3	29.988127E-3	23.197219E-6	29.949937E-3	56.869107E-6	29.939897E-3	-27.915192E-6	29.937025E-3	-2.7736592E-6	30.096201E-3	97.140670E-6	30.069236E-3	5.6786685E-6	29.748622E-3	-109.96756E-6	29.941881E-3	1.8363205E-6	29.757494E-3	60.835122E-6	30.050684E-3	62.988889E-6
27.500004E-3	30.013828E-3	-38.022172E-6	29.939298E-3	-57.200130E-6	29.935410E-3	-27.113540E-6	29.945176E-3	26.649785E-6	30.045018E-3	91.111768E-6	30.050257E-3	-5.7210723E-6	29.767200E-3	-50.084374E-6	29.958583E-3	-71.862734E-6	29.766215E-3	-76.632445E-6	30.056270E-3	-72.447969E-6
30.000001E-3	30.072430E-3	25.048779E-6	29.936178E-3	-24.388872E-6	29.904479E-3	-32.525142E-6	29.951526E-3	-76.955897E-6	30.108742E-3	50.083818E-6	30.035617E-3	-17.258162E-6	29.782219E-3	83.999854E-6	30.063935E-3	-12.350815E-6	29.920163E-3	77.511824E-6	30.050011E-3	55.019445E-6
32.499999E-3	30.091925E-3	-18.151926E-6	29.928664E-3	57.689704E-6	29.893866E-3	-19.733843E-6	29.934825E-3	3.8240291E-6	30.112505E-3	-54.164801E-6	30.060750E-3	-2.1738824E-6	29.800836E-3	105.38217E-6	30.021939E-3	80.654521E-6	29.927207E-3	-85.988708E-6	30.063594E-3	34.828958E-6
34.999996E-3	30.033574E-3	48.012385E-6	29.909384E-3	-50.162005E-6	29.889878E-3	-12.700056E-6	29.964192E-3	19.861385E-6	29.979376E-3	-81.053135E-6	30.101251E-3	28.560113E-6	29.808553E-3	-7.6414599E-6	30.044803E-3	-57.200254E-6	29.928867E-3	54.530552E-6	30.101888E-3	-78.885925E-6
37.499994E-3	30.057119E-3	-30.841446E-6	29.926343E-3	-14.851713E-6	29.946402E-3	18.032133E-6	29.985989E-3	-64.356253E-6	29.997073E-3	-95.376599E-6	30.096296E-3	47.569167E-6	29.856479E-3	-23.007373E-6	30.015055E-3	-11.713555E-6	29.963698E-3	-71.759241E-6	30.095095E-3	56.595858E-6
39.999992E-3	30.075153E-3	109.29334E-6	29.949266E-3	109.62252E-6	29.948719E-3	67.058376E-6	29.949442E-3	97.184398E-6	30.008545E-3	-5.6322483E-6	30.109560E-3	76.775672E-6	29.902004E-3	23.693610E-6	30.025294E-3	88.049113E-6	30.014474E-3	130.68902E-6	30.116085E-3	82.766499E-6
42.499989E-3	30.191306E-3	124.68464E-6	30.014183E-3	148.01284E-6	29.988827E-3	232.13707E-6	30.091017E-3	168.79437E-6	30.137803E-3	214.07052E-6	30.226992E-3	214.99700E-6	29.986894E-3	212.50539E-6	30.110365E-3	177.59345E-6	30.058773E-3	166.55671E-6	30.192370E-3	142.34666E-6
44.999987E-3	30.498564E-3	743.57330E-6	30.266456E-3	614.77959E-6	30.324802E-3	722.19811E-6	30.391719E-3	646.08693E-6	30.406842E-3	711.67684E-6	30.494690E-3	633.95692E-6	30.242540E-3	660.04245E-6	30.414859E-3	628.04756E-6	30.346788E-3	720.00304E-6	30.421700E-3	732.43142E-6
47.499985E-3	31.194234E-3	1.7125896E-3	30.997641E-3	1.7397678E-3	31.042917E-3	1.7558940E-3	31.100441E-3	1.7908888E-3	31.161958E-3	1.8192212E-3	31.280391E-3	1.7281323E-3	30.952122E-3	1.7962185E-3	31.117862E-3	1.7466843E-3	31.117644E-3	1.6897396E-3	31.158347E-3	1.7540863E-3
49.999982E-3	32.200951E-3	3.1343901E-3	32.019209E-3	3.0375153E-3	32.030072E-3	3.0751177E-3	32.107901E-3	3.0243408E-3	32.269869E-3	3.1197043E-3	32.289766E-3	3.0643132E-3	31.922553E-3	3.1608550E-3	32.126453E-3	3.0920221E-3	32.094274E-3	3.1432256E-3	32.188099E-3	2.9655274E-3
52.499980E-3	33.278082E-3	4.2060036E-3	33.073865E-3	4.2140153E-3	33.071540E-3	4.2110258E-3	33.120833E-3	4.1544926E-3	33.416495E-3	4.2536343E-3	33.319976E-3	4.2125219E-3	33.019509E-3	4.2798193E-3	33.222415E-3	4.1138534E-3	33.167731E-3	4.1719736E-3	33.247270E-3	4.2832945E-3
55.000007E-3	34.396082E-3	5.0207833E-3	34.216601E-3	5.0492887E-3	34.229707E-3	5.0411331E-3	34.247458E-3	5.0778566E-3	34.539711E-3	5.0718286E-3	34.482989E-3	5.0783278E-3	34.151472E-3	5.0706496E-3	34.362189E-3	5.0459770E-3	34.279708E-3	4.9531017E-3	34.398947E-3	4.9339444E-3
57.500005E-3	35.641238E-3	5.5934181E-3	35.383157E-3	5.4975757E-3	35.428513E-3	5.5353432E-3	35.493061E-3	5.5400277E-3	35.744458E-3	5.5643492E-3	35.673160E-3	5.5779251E-3	35.343673E-3	5.4996256E-3	35.581548E-3	5.5038207E-3	35.493597E-3	5.5457028E-3	35.587873E-3	5.5153123E-3
60.000002E-3	36.996149E-3	5.5214143E-3	36.831524E-3	5.5862595E-3	36.834810E-3	5.5927220E-3	36.886461E-3	5.5231592E-3	37.187144E-3	5.6304121E-3	37.065737E-3	5.6223883E-3	36.698796E-3	5.5441996E-3	36.908321E-3	5.6492123E-3	36.962833E-3	5.6636729E-3	36.996540E-3	5.5603031E-3
62.500000E-3	38.589340E-3	5.1359511E-3	38.433731E-3	5.1370985E-3	38.426649E-3	5.0485753E-3	38.455699E-3	5.1023271E-3	38.700804E-3	5.1287576E-3	38.646746E-3	5.0173560E-3	38.293336E-3	5.0714146E-3	38.453691E-3	5.0050155E-3	38.551349E-3	5.1249582E-3	38.536068E-3	4.9785660E-3
64.999998E-3	40.232059E-3	4.1860221E-3	40.027168E-3	4.2740451E-3	40.107816E-3	4.2464663E-3	40.106438E-3	4.2848582E-3	40.314678E-3	4.3577910E-3	40.270228E-3	4.3239505E-3	39.963830E-3	4.3429392E-3	40.108621E-3	4.2925719E-3	40.172596E-3	4.3506045E-3	40.034622E-3	4.3233945E-3
67.499995E-3	41.574623E-3	3.7259161E-3	41.364241E-3	3.6272702E-3	41.469350E-3	3.6650929E-3	41.422270E-3	3.6586986E-3	41.679472E-3	3.6938626E-3	41.635491E-3	3.7358562E-3	41.331653E-3	3.7542584E-3	41.472368E-3	3.7543301E-3	41.484553E-3	3.7795915E-3	41.447032E-3	3.6046433E-3
69.999993E-3	42.703193E-3	3.3546975E-3	42.499356E-3	3.4283642E-3	42.558171E-3	3.3447435E-3	42.608790E-3	3.4493369E-3	42.801876E-3	3.2739912E-3	42.737186E-3	3.3376312E-3	42.557634E-3	3.3176579E-3	42.605981E-3	3.2698552E-3	42.627808E-3	3.4273709E-3	42.776838E-3	3.4525066E-3
72.499990E-3	43.710269E-3	3.1161562E-3	43.469906E-3	3.0763636E-3	43.561265E-3	3.1432174E-3	43.605037E-3	3.1195134E-3	43.821890E-3	3.1229225E-3	43.765333E-3	3.1464468E-3	43.565076E-3	3.1126649E-3	43.619785E-3	3.0888314E-3	43.649741E-3	3.0828312E-3	43.768611E-3	3.0674655E-3
74.999988E-3	44.630993E-3	3.0157326E-3	44.274140E-3	2.9893778E-3	44.549413E-3	2.9759128E-3	44.571865E-3	2.9387076E-3	44.715617E-3	3.0369454E-3	44.699866E-3	3.0230917E-3	44.560656E-3	3.0569108E-3	44.557445E-3	3.0320147E-3	44.571914E-3	2.8638463E-3	44.698868E-3	3.0544465E-3
77.499986E-3	45.492433E-3	2.7279707E-3	45.255542E-3	2.8404957E-3	45.361720E-3	2.8117786E-3	45.469921E-3	2.8813493E-3	45.631964E-3	2.7129743E-3	45.555379E-3	2.8255030E-3	45.407880E-3	2.8111546E-3	45.431789E-3	2.9178429E-3	45.452762E-3	2.7502072E-3	45.597337E-3	2.7446640E-3
79.999983E-3	46.354186E-3	2.7636094E-3	46.079297E-3	2.7105191E-3	46.169285E-3	2.7092730E-3	46.280455E-3	2.6304766E-3	46.490539E-3	2.7582126E-3	46.435360E-3	2.6679684E-3	46.224456E-3	2.6344969E-3	46.302155E-3	2.6895590E-3	46.268210E-3	2.7239912E-3	46.437938E-3	2.6992371E-3
82.499981E-3	47.180079E-3	2.5169102E-3	46.921153E-3	2.5059166E-3	47.018368E-3	2.6037134E-3	47.103468E-3	2.6602976E-3	47.286384E-3	2.5240078E-3	47.235344E-3	2.5901308E-3	47.039144E-3	2.6558372E-3	47.094207E-3	2.5029047E-3	47.084447E-3	2.6984708E-3	47.242191E-3	2.6141542E-3
84.999979E-3	47.991268E-3	2.5911869E-3	47.666967E-3	2.5672894E-3	47.781542E-3	2.5388179E-3	47.871087E-3	2.4726705E-3	48.084769E-3	2.5617855E-3	48.028439E-3	2.5625506E-3	47.821634E-3	2.5946894E-3	47.864858E-3	2.4257230E-3	47.921527E-3	2.5526350E-3	48.099399E-3	2.4443108E-3
87.500006E-3	48.706535E-3	2.3674818E-3	48.420824E-3	2.3413701E-3	48.512727E-3	2.4505616E-3	48.631448E-3	2.4844815E-3	48.837017E-3	2.4503788E-3	48.793722E-3	2.5081586E-3	48.531748E-3	2.4447893E-3	48.604298E-3	2.4939186E-3	48.584457E-3	2.4003147E-3	48.863098E-3	2.4604602E-3
90.000004E-3	49.472436E-3	2.4699301E-3	49.156982E-3	2.4947992E-3	49.269207E-3	2.3972546E-3	49.362916E-3	2.3830908E-3	49.586926E-3	2.3089331E-3	49.526621E-3	2.4415208E-3	49.276222E-3	2.3143853E-3	49.376644E-3	2.5135528E-3	49.261589E-3	2.3152533E-3	49.571175E-3	2.3776882E-3
92.500001E-3	50.174888E-3	2.3144165E-3	49.902592E-3	2.2600114E-3	49.995188E-3	2.3226875E-3	50.078183E-3	2.3464640E-3	50.320681E-3	2.3763175E-3	50.257925E-3	2.3444099E-3	50.025851E-3	2.2763745E-3	50.099675E-3	2.3316666E-3	50.010949E-3	2.3967603E-3	50.249837E-3	2.2770327E-3
94.999999E-3	50.874688E-3	2.3109140E-3	50.632868E-3	2.3768563E-3	50.694227E-3	2.3041302E-3	50.783519E-3	2.3697747E-3	51.012311E-3	2.3023435E-3	50.931193E-3	2.3268464E-3	50.729439E-3	2.3526007E-3	50.791506E-3	2.2028149E-3	50.708245E-3	2.4126933E-3	51.032692E-3	2.3900166E-3
97.499996E-3	51.472697E-3	2.3201487E-3	51.304325E-3	2.2059204E-3	51.373728E-3	2.2796565E-3	51.482696E-3	2.2367567E-3	51.686108E-3	2.2302894E-3	51.637303E-3	2.2964438E-3	51.422369E-3	2.3741385E-3	51.594041E-3	2.2814372E-3	51.267035E-3	2.2602221E-3	51.972661E-3	2.1998493E-3
99.999994E-3	52.269548E-3	2.2257515E-3	52.008059E-3	2.3093938E-3	52.040033E-3	2.2456523E-3	52.166454E-3	2.3041917E-3	52.377377E-3	2.3076478E-3	52.323628E-3	2.2461875E-3	52.076474E-3	2.2963802E-3	52.298956E-3	2.3598447E-3	51.958259E-3	2.1575331E-3	52.644059E-3	2.3248959E-3
102.49999E-3	52.967429E-3	2.3168263E-3	52.687656E-3	2.1721623E-3	52.700274E-3	2.2527345E-3	52.870493E-3	2.1912293E-3	53.042509E-3	2.1699686E-3	52.979924E-3	2.2207822E-3	52.759815E-3	2.1393443E-3	52.764751E-3	2.2509045E-3	52.711908E-3	2.2682124E-3	53.330000E-3	2.1436878E-3
104.99999E-3	53.629778E-3	2.1581175E-3	53.381067E-3	2.2447279E-3	53.391267E-3	2.2088008E-3	53.505473E-3	2.2400180E-3	53.722903E-3	2.2854756E-3	53.660072E-3	2.2122408E-3	53.431291E-3	2.1981222E-3	53.467698E-3	2.1146603E-3	53.396735E-3	2.3268359E-3	53.998861E-3	2.2231531E-3
107.49999E-3	54.302014E-3	2.2951777E-3	54.047469E-3	2.1563922E-3	54.067336E-3	2.2121943E-3	54.378502E-3	2.2348284E-3	54.382864E-3	2.1442678E-3	54.301128E-3	2.1831836E-3	54.096241E-3	2.2779347E-3	54.103393E-3	2.2141298E-3	54.089192E-3	2.2260442E-3	54.666676E-3	2.2861846E-3
109.99998E-3	54.946698E-3	2.0906080E-3	54.834697E-3	2.1945864E-3	54.734096E-3	2.2019914E-3	54.928321E-3	2.1218695E-3	55.032205E-3	2.2534062E-3	54.962408E-3	2.1808930E-3	54.770034E-3	2.1565175E-3	54.790020E-3	2.2657474E-3	54.749422E-3	2.1160648E-3	55.313457E-3	2.1043094E-3
112.49998E-3	55.406671E-3	2.2909227E-3	55.605158E-3	2.1905147E-3	55.408020E-3	2.1819812E-3	55.462655E-3	2.2283320E-3	55.694468E-3	2.1102896E-3	55.667635E-3	2.1770673E-3	55.423245E-3	2.1613548E-3	55.435762E-3	2.1032402E-3	55.343907E-3	2.1341841E-3	56.013759E-3	2.1149206E-3
114.99998E-3	56.077924E-3	2.0955773E-3	56.280270E-3	2.1649916E-3	56.081034E-3	2.1796490E-3	55.966608E-3	2.2205599E-3	56.321714E-3	2.2238742E-3	56.298755E-3	2.1433970E-3	56.074500E-3	2.2551229E-3	56.108430E-3	2.2740373E-3	56.014564E-3	2.2409244E-3	56.632679E-3	2.2222355E-3
117.49998E-3	56.686368E-3	2.2358238E-3	56.927770E-3	2.2423181E-3	56.756109E-3	2.1704480E-3	56.669910E-3	2.1231342E-3	56.989685E-3	2.0941107E-3	56.885533E-3	2.1324798E-3	56.735504E-3	2.0702998E-3	56.740779E-3	2.0996216E-3	56.705251E-3	2.2653930E-3	57.290331E-3	2.2469533E-3
120.00000E-3	57.340022E-3	2.1152676E-3	57.594091E-3	2.0736107E-3	57.383254E-3	2.1612085E-3	57.324488E-3	2.2028524E-3	57.650585E-3	2.2052303E-3	57.466507E-3	2.1268073E-3	57.360601E-3	2.2367116E-3	57.424322E-3	2.2142448E-3	57.388850E-3	2.1305904E-3	57.928339E-3	2.2252437E-3
122.50000E-3	57.885263E-3	2.2189359E-3	58.273137E-3	2.2382475E-3	58.049146E-3	2.1764701E-3	57.977621E-3	2.2128008E-3	58.308206E-3	2.2616941E-3	58.082458E-3	2.1646693E-3	58.018669E-3	2.1099281E-3	58.023389E-3	2.1723704E-3	58.026295E-3	2.1468641E-3	58.579110E-3	2.0914781E-3
125.00000E-3	58.543280E-3	2.1448496E-3	58.930937E-3	2.1885834E-3	58.728311E-3	2.1719751E-3	58.754377E-3	2.1329850E-3	59.006393E-3	2.1903904E-3	58.759905E-3	2.2020142E-3	58.685731E-3	2.2020119E-3	58.660179E-3	2.1197994E-3	58.693413E-3	2.2367076E-3	59.108827E-3	2.0854024E-3
127.50000E-3	59.184004E-3	2.2521131E-3	59.583113E-3	2.0837199E-3	59.440646E-3	2.1699294E-3	59.422791E-3	2.2050815E-3	59.639838E-3	2.0846804E-3	59.382338E-3	2.2204949E-3	59.349615E-3	2.2032578E-3	59.355538E-3	2.2038154E-3	59.334494E-3	2.1037632E-3	59.651397E-3	2.1692095E-3
130.00000E-3	59.835121E-3	2.1156094E-3	60.214587E-3	2.2199601E-3	60.144309E-3	2.2098147E-3	60.078669E-3	2.2312934E-3	60.325902E-3	2.0719094E-3	60.051035E-3	2.2186467E-3	59.989206E-3	2.1418114E-3	60.027260E-3	2.2250793E-3	60.001619E-3	2.2218770E-3	60.603961E-3	2.2723353E-3
132.49999E-3	60.477123E-3	2.2372431E-3	60.888134E-3	2.2498486E-3	60.702879E-3	2.1911736E-3	60.747929E-3	2.1393097E-3	60.953628E-3	2.2511657E-3	60.751621E-3	2.1967099E-3	60.669404E-3	2.2088413E-3	60.720757E-3	2.2073721E-3	60.655423E-3	2.0998076E-3	61.040916E-3	2.1420287E-3
134.99999E-3	61.141249E-3	2.2014382E-3	61.516780E-3	2.1378070E-3	61.341021E-3	2.1704072E-3	61.376370E-3	2.2315865E-3	61.618306E-3	2.2233571E-3	61.378580E-3	2.1751919E-3	61.303742E-3	2.1481852E-3	61.364084E-3	2.1244180E-3	61.315391E-3	2.2294507E-3	61.633341E-3	2.1443414E-3
137.49999E-3	61.837461E-3	2.1109320E-3	62.206674E-3	2.0700742E-3	62.017549E-3	2.1765796E-3	62.059987E-3	2.1331797E-3	62.455710E-3	2.0775583E-3	62.041316E-3	2.1580798E-3	61.983466E-3	2.2072345E-3	62.003527E-3	2.1561349E-3	61.946813E-3	2.1136063E-3	62.298138E-3	2.2759112E-3
139.99999E-3	62.492259E-3	2.2276689E-3	62.893942E-3	2.2329993E-3	62.676549E-3	2.1456429E-3	62.701158E-3	2.2225259E-3	63.182488E-3	2.2397994E-3	62.755942E-3	2.1393290E-3	62.650405E-3	2.1789782E-3	62.602378E-3	2.2419298E-3	62.624268E-3	2.2550961E-3	62.942572E-3	2.0972893E-3
142.49998E-3	63.106880E-3	2.2406490E-3	63.532583E-3	2.2040154E-3	63.337244E-3	2.1730540E-3	63.361257E-3	2.1588956E-3	63.706622E-3	2.1724100E-3	63.388392E-3	2.1334041E-3	63.255168E-3	2.1504925E-3	63.297585E-3	2.2126548E-3	63.260376E-3	2.1433360E-3	63.613296E-3	2.2231760E-3
144.99998E-3	63.950382E-3	2.1212909E-3	64.194687E-3	2.1117872E-3	63.975416E-3	2.1971869E-3	64.050570E-3	2.1949040E-3	64.246908E-3	2.1297361E-3	64.067461E-3	2.1841750E-3	63.936502E-3	2.2568312E-3	63.960075E-3	2.1602591E-3	63.802488E-3	2.1737607E-3	64.253747E-3	2.1893252E-3
147.49998E-3	64.667448E-3	2.2012491E-3	64.873837E-3	2.2544081E-3	64.583808E-3	2.1707774E-3	64.676940E-3	2.1972444E-3	64.927235E-3	2.2670655E-3	64.700417E-3	2.1793104E-3	64.621441E-3	2.1974454E-3	64.620361E-3	2.1304125E-3	64.534932E-3	2.2277837E-3	64.913772E-3	2.1322870E-3
149.99998E-3	65.262921E-3	2.2286398E-3	65.534629E-3	2.0903596E-3	65.247856E-3	2.1838122E-3	65.329760E-3	2.1238672E-3	65.570436E-3	2.0890287E-3	65.367579E-3	2.1962333E-3	65.265320E-3	2.1410582E-3	65.258674E-3	2.1630300E-3	65.248720E-3	2.1203740E-3	65.488644E-3	2.2631199E-3
152.50000E-3	65.852448E-3	2.1528404E-3	66.179544E-3	2.2470022E-3	65.919295E-3	2.1502820E-3	65.997563E-3	2.2425225E-3	66.215299E-3	2.2372971E-3	66.012777E-3	2.1835936E-3	65.929167E-3	2.1814595E-3	65.943412E-3	2.2431025E-3	65.882824E-3	2.2436271E-3	66.101566E-3	2.0867453E-3
155.00000E-3	66.585898E-3	2.1531095E-3	66.819198E-3	2.0948043E-3	66.603564E-3	2.1677343E-3	66.655576E-3	2.1831915E-3	66.849545E-3	2.1481430E-3	66.667199E-3	2.2102518E-3	66.594377E-3	2.2112206E-3	66.581175E-3	2.2057197E-3	66.511467E-3	2.1304232E-3	66.786565E-3	2.2414690E-3
157.50000E-3	67.225136E-3	2.1944272E-3	67.490362E-3	2.2687204E-3	67.273729E-3	2.1725872E-3	67.305349E-3	2.1531298E-3	67.541048E-3	2.1531745E-3	67.299575E-3	2.2180898E-3	67.308091E-3	2.1033895E-3	67.205653E-3	2.1262781E-3	67.163691E-3	2.1446573E-3	67.515656E-3	2.1407916E-3
160.00000E-3	67.865357E-3	2.1990913E-3	68.113506E-3	2.1211193E-3	67.924827E-3	2.1941250E-3	67.955308E-3	2.1939799E-3	68.198502E-3	2.2068312E-3	67.930095E-3	2.2087768E-3	67.987822E-3	2.1679448E-3	67.830428E-3	2.1472764E-3	67.837700E-3	2.2494658E-3	68.172619E-3	2.1981865E-3
162.49999E-3	68.535060E-3	2.2195606E-3	68.780087E-3	2.2356643E-3	68.561889E-3	2.1920211E-3	68.607569E-3	2.2233620E-3	68.862014E-3	2.1431949E-3	68.596706E-3	2.2068622E-3	68.604745E-3	2.2214779E-3	68.424761E-3	2.1949268E-3	68.495981E-3	2.1260649E-3	68.760306E-3	2.2318009E-3
164.99999E-3	69.198109E-3	2.2269913E-3	69.402397E-3	2.1744175E-3	69.203019E-3	2.1825018E-3	69.247410E-3	2.1721416E-3	69.389187E-3	2.2196732E-3	69.231600E-3	2.1894854E-3	69.276191E-3	2.1292802E-3	69.109485E-3	2.2273790E-3	69.193691E-3	2.1715018E-3	69.442414E-3	2.1203326E-3
167.49999E-3	69.942139E-3	2.2330559E-3	70.034422E-3	2.1495190E-3	69.880269E-3	2.1787169E-3	69.898650E-3	2.1252006E-3	70.044629E-3	2.1212599E-3	69.885127E-3	2.1803046E-3	69.946483E-3	2.1457716E-3	69.772229E-3	2.1961685E-3	69.957808E-3	2.2443386E-3	70.076980E-3	2.2729416E-3
169.99999E-3	70.592038E-3	2.1781875E-3	70.708670E-3	2.2093502E-3	70.585445E-3	2.1764990E-3	70.536248E-3	2.1949538E-3	70.670672E-3	2.2235869E-3	70.557758E-3	2.1781526E-3	70.611708E-3	2.2564183E-3	70.384897E-3	2.1505156E-3	70.608884E-3	2.1634428E-3	70.740223E-3	2.1586360E-3
172.49998E-3	71.448319E-3	2.1631124E-3	71.371391E-3	2.2259352E-3	71.243636E-3	2.1709425E-3	71.221344E-3	2.2340410E-3	71.343198E-3	2.1451658E-3	71.252465E-3	2.1961371E-3	71.279474E-3	2.1144103E-3	71.057029E-3	2.1761036E-3	71.242385E-3	2.1101013E-3	71.426935E-3	2.1249084E-3
174.99998E-3	71.873873E-3	2.1680924E-3	72.042271E-3	2.1215077E-3	71.818925E-3	2.1719984E-3	71.921729E-3	2.2153137E-3	71.979351E-3	2.2404359E-3	71.880780E-3	2.2114990E-3	72.028279E-3	2.2220763E-3	71.820647E-3	2.2388930E-3	71.914308E-3	2.1752787E-3	72.061785E-3	2.2444730E-3
177.49998E-3	72.523959E-3	2.1568672E-3	72.721019E-3	2.2820267E-3	72.530165E-3	2.1926211E-3	72.581299E-3	2.1615436E-3	72.655343E-3	2.1000064E-3	72.542511E-3	2.1972868E-3	72.718978E-3	2.1640752E-3	72.498679E-3	2.2266097E-3	72.565958E-3	2.2443479E-3	72.814152E-3	2.1728305E-3
179.99998E-3	73.213294E-3	2.1375786E-3	73.378533E-3	2.1106363E-3	73.157310E-3	2.1722908E-3	73.197417E-3	2.1440410E-3	73.342003E-3	2.2609464E-3	73.233634E-3	2.1817675E-3	73.408060E-3	2.2341418E-3	73.180258E-3	2.1705902E-3	73.182106E-3	2.1765889E-3	73.456474E-3	2.1160925E-3
182.50000E-3	73.927633E-3	2.1499828E-3	74.050099E-3	2.2037355E-3	73.832534E-3	2.1753740E-3	73.865414E-3	2.2384000E-3	73.996440E-3	2.2484350E-3	73.868863E-3	2.1790140E-3	74.063540E-3	2.0910585E-3	73.815331E-3	2.1364845E-3	73.874965E-3	2.1010882E-3	74.086688E-3	2.2647879E-3
185.00000E-3	74.586935E-3	2.1554329E-3	74.717417E-3	2.2972524E-3	74.500784E-3	2.1820054E-3	74.538857E-3	2.2126331E-3	74.631937E-3	2.2093575E-3	74.500889E-3	2.1716491E-3	74.720770E-3	2.2839729E-3	74.450091E-3	2.1726463E-3	74.566655E-3	2.2022063E-3	74.741557E-3	2.1605445E-3
187.50000E-3	75.252168E-3	2.1645084E-3	75.358190E-3	2.1169446E-3	75.178549E-3	2.1875580E-3	75.172745E-3	2.1398277E-3	75.269960E-3	2.1884083E-3	75.067461E-3	2.1844122E-3	75.365961E-3	2.1189661E-3	75.141691E-3	2.2177980E-3	75.215623E-3	2.2356205E-3	75.412892E-3	2.1351243E-3
190.00000E-3	75.895950E-3	2.1904304E-3	76.056287E-3	2.1021264E-3	75.808436E-3	2.1692212E-3	75.849243E-3	2.1605643E-3	75.933896E-3	2.2774797E-3	75.721972E-3	2.1750918E-3	76.004237E-3	2.2487619E-3	75.809747E-3	2.2398729E-3	75.863667E-3	2.0991075E-3	76.071061E-3	2.2667735E-3
192.50000E-3	76.564290E-3	2.2505422E-3	76.728180E-3	2.1711411E-3	76.403119E-3	2.1746515E-3	76.499939E-3	2.2494926E-3	76.720320E-3	2.2633057E-3	76.483153E-3	2.1870530E-3	76.637939E-3	2.1141274E-3	76.407753E-3	2.2168707E-3	76.522477E-3	2.2303727E-3	76.732762E-3	2.1214241E-3
194.99999E-3	77.252470E-3	2.2338585E-3	77.350169E-3	2.2766958E-3	77.061087E-3	2.1972544E-3	77.137999E-3	2.1396889E-3	77.423647E-3	2.1835633E-3	77.166721E-3	2.1599277E-3	77.322625E-3	2.2311334E-3	77.079237E-3	2.1790883E-3	77.194571E-3	2.1168494E-3	77.249944E-3	2.2887178E-3
197.49999E-3	77.861264E-3	2.1691935E-3	78.014843E-3	2.3044290E-3	77.780217E-3	2.1600716E-3	77.808119E-3	2.2232654E-3	78.078248E-3	2.1178168E-3	77.814437E-3	2.1716575E-3	78.016147E-3	2.1446282E-3	77.780999E-3	2.1343632E-3	77.881098E-3	2.2512348E-3	77.940814E-3	2.1292944E-3
199.99999E-3	78.522161E-3	2.2008477E-3	78.661822E-3	2.2431382E-3	78.398257E-3	2.1772429E-3	78.498356E-3	2.2241571E-3	78.668363E-3	2.2576693E-3	78.492425E-3	2.2057984E-3	78.697033E-3	2.2346680E-3	78.400910E-3	2.2033611E-3	78.536309E-3	2.1495265E-3	78.622058E-3	2.2734979E-3
202.49999E-3	79.180911E-3	2.2009755E-3	79.334490E-3	2.2193950E-3	79.072259E-3	2.2032179E-3	79.157829E-3	2.1483530E-3	79.356164E-3	2.2056405E-3	79.160027E-3	2.2017413E-3	79.381295E-3	2.1572127E-3	79.079196E-3	2.2267066E-3	79.177253E-3	2.2288647E-3	79.259776E-3	2.1640179E-3
204.99998E-3	79.805464E-3	2.1930309E-3	79.950839E-3	2.2366408E-3	79.748437E-3	2.2028335E-3	79.828829E-3	2.2594817E-3	80.034107E-3	2.1115670E-3	79.864413E-3	2.2105607E-3	80.026083E-3	2.2269636E-3	79.726875E-3	2.2483536E-3	79.835325E-3	2.1868718E-3	79.888053E-3	2.2104799E-3
207.49998E-3	80.467366E-3	2.1734417E-3	80.680296E-3	2.2042852E-3	80.377758E-3	2.2093549E-3	80.483280E-3	2.2405381E-3	80.731377E-3	2.2994182E-3	80.512330E-3	2.1940465E-3	80.697849E-3	2.2461764E-3	80.410637E-3	2.2513799E-3	80.481552E-3	2.1587948E-3	80.725744E-3	2.1722994E-3
209.99998E-3	81.149399E-3	2.1684242E-3	81.332803E-3	2.1265596E-3	81.060864E-3	2.1758033E-3	81.123166E-3	2.1209978E-3	81.361823E-3	2.1441679E-3	81.228912E-3	2.1753602E-3	81.412129E-3	2.1295361E-3	81.072882E-3	2.2384042E-3	81.131302E-3	2.2379616E-3	81.406876E-3	2.2424385E-3
212.49998E-3	81.816159E-3	2.1872092E-3	82.040779E-3	2.1261096E-3	81.752226E-3	2.1989825E-3	81.788443E-3	2.2311106E-3	82.106628E-3	2.2855054E-3	81.885755E-3	2.2236926E-3	82.188465E-3	2.3055554E-3	81.843637E-3	2.2135889E-3	81.813768E-3	2.1831021E-3	82.224451E-3	2.1871594E-3
215.00000E-3	82.478367E-3	2.1976787E-3	82.685106E-3	2.1773672E-3	82.428746E-3	2.2372284E-3	82.483202E-3	2.1967627E-3	82.725786E-3	2.1653557E-3	82.516029E-3	2.2354445E-3	82.850456E-3	2.2088676E-3	82.504481E-3	2.2253289E-3	82.496807E-3	2.2345360E-3	82.904704E-3	2.2335404E-3
217.50000E-3	83.175480E-3	2.2066063E-3	83.343647E-3	2.2596181E-3	83.109237E-3	2.1956735E-3	83.134688E-3	2.1617953E-3	83.387293E-3	2.3082348E-3	83.139807E-3	2.2129344E-3	83.456308E-3	2.1793437E-3	83.149195E-3	2.1954780E-3	83.149448E-3	2.2484858E-3	83.571792E-3	2.2105279E-3
220.00000E-3	83.838694E-3	2.2092427E-3	83.994210E-3	2.3368348E-3	83.802469E-3	2.2043341E-3	83.656646E-3	2.2880952E-3	84.044479E-3	2.1593575E-3	83.807886E-3	2.2120439E-3	84.022827E-3	2.3075656E-3	83.811417E-3	2.2284670E-3	83.820388E-3	2.1434042E-3	84.258318E-3	2.2490809E-3
222.50000E-3	84.522918E-3	2.2179885E-3	84.670246E-3	2.3123052E-3	84.211975E-3	2.2136928E-3	84.316455E-3	2.1569845E-3	84.752731E-3	2.2939460E-3	84.440224E-3	2.2286486E-3	84.680974E-3	2.1839826E-3	84.516719E-3	2.2322566E-3	84.488243E-3	2.2826188E-3	84.947951E-3	2.1934535E-3
224.99999E-3	85.195780E-3	2.2279536E-3	85.357696E-3	2.2043681E-3	84.870197E-3	2.2304845E-3	85.045993E-3	2.2829296E-3	85.434243E-3	2.1768217E-3	85.145898E-3	2.1970142E-3	85.343041E-3	2.1702612E-3	85.198320E-3	2.2324871E-3	85.055515E-3	2.1947259E-3	85.619926E-3	2.3175268E-3
227.49999E-3	85.841395E-3	2.2513634E-3	86.015530E-3	2.1307482E-3	85.508898E-3	2.2211010E-3	85.714646E-3	2.1587599E-3	86.089648E-3	2.3004017E-3	85.804313E-3	2.2242249E-3	86.031802E-3	2.3115168E-3	85.859545E-3	2.2057949E-3	85.620321E-3	2.1716745E-3	86.311497E-3	2.1390505E-3
229.99999E-3	86.534269E-3	2.2341681E-3	86.677097E-3	2.1672056E-3	86.208455E-3	2.2097998E-3	86.355641E-3	2.3335733E-3	86.768672E-3	2.1518688E-3	86.470425E-3	2.2178371E-3	86.691134E-3	2.2301008E-3	86.570978E-3	2.2252169E-3	86.313941E-3	2.2675733E-3	86.975649E-3	2.3186812E-3
232.49999E-3	87.190419E-3	2.2106543E-3	87.355234E-3	2.2731947E-3	86.911909E-3	2.1999215E-3	87.052628E-3	2.1798473E-3	87.444544E-3	2.2812160E-3	87.143600E-3	2.2279839E-3	87.276809E-3	2.1386768E-3	87.177858E-3	2.2337504E-3	86.979814E-3	2.2518428E-3	87.617032E-3	2.2418490E-3
234.99998E-3	87.856583E-3	2.2267809E-3	88.032790E-3	2.3283674E-3	87.626308E-3	2.2394992E-3	87.749682E-3	2.1687194E-3	88.140003E-3	2.2118650E-3	87.898262E-3	2.2349544E-3	87.915801E-3	2.2157065E-3	87.846614E-3	2.2076354E-3	87.644018E-3	2.1647995E-3	88.271894E-3	2.1954800E-3
237.49998E-3	88.510275E-3	2.2073844E-3	88.721663E-3	2.3505222E-3	88.292338E-3	2.2289993E-3	88.463254E-3	2.3301619E-3	88.838160E-3	2.2344138E-3	88.571236E-3	2.2128567E-3	88.478386E-3	2.3079817E-3	88.536724E-3	2.2392641E-3	88.324040E-3	2.2191340E-3	89.015067E-3	2.3223897E-3
239.99998E-3	89.209773E-3	2.2629218E-3	89.386486E-3	2.2916051E-3	88.929936E-3	2.2461773E-3	89.119814E-3	2.2357886E-3	89.541286E-3	2.3212372E-3	89.497983E-3	2.2182821E-3	89.222185E-3	2.3486700E-3	89.222707E-3	2.2604268E-3	89.018777E-3	2.3115482E-3	89.699574E-3	2.1696836E-3
242.49998E-3	89.900114E-3	2.2217594E-3	90.067141E-3	2.2951791E-3	89.625768E-3	2.2407037E-3	89.807026E-3	2.1395320E-3	90.202391E-3	2.1624581E-3	90.167738E-3	2.2451510E-3	89.967579E-3	2.2883520E-3	89.884423E-3	2.2329052E-3	89.715317E-3	2.2080617E-3	90.410329E-3	2.2751612E-3
244.99997E-3	90.545952E-3	2.2156134E-3	90.683348E-3	2.2549378E-3	90.321876E-3	2.2201096E-3	90.479352E-3	2.3353272E-3	90.987377E-3	2.3256484E-3	90.755746E-3	2.2512039E-3	90.619177E-3	2.2332317E-3	90.516903E-3	2.2176146E-3	90.378590E-3	2.2508369E-3	91.059074E-3	2.2592307E-3
247.50000E-3	91.251545E-3	2.2394706E-3	91.404699E-3	2.2165948E-3	91.141053E-3	2.2452744E-3	91.146119E-3	2.2216202E-3	91.685556E-3	2.2076422E-3	91.248833E-3	2.2638347E-3	91.393352E-3	2.1754378E-3	91.197021E-3	2.2488688E-3	91.059223E-3	2.2780020E-3	91.699652E-3	2.1795956E-3
250.00000E-3	91.882981E-3	2.2524900E-3	92.004679E-3	2.2033555E-3	91.866694E-3	2.2570416E-3	91.851085E-3	2.2100308E-3	92.324622E-3	2.2825543E-3	91.957025E-3	2.2410061E-3	91.976725E-3	2.2238237E-3	91.813676E-3	2.2619551E-3	91.788679E-3	2.2165361E-3	92.344515E-3	2.3284690E-3
