Experiment	Sweeper	
Saved Date	11.07.2023 19:50:05	
User		
Date		
Start time	11.07.2023 19:26:27	
Sweep channel: Name	Output 3 (V)	
Sweep channel: Start (V)	-250E-3	
Sweep channel: Stop (V)	250E-3	
Sweep channel: Points	201	
Sweep channel: Max slew rate (V/s)	Inf	
Sweep channel: Initial settling time (s)	20E+3	
Sweep channel: End settling time (s)	10E+0	
Sweep channel: Backward sweep	TRUE	
Sweep channel: Number of sweeps	5	
Sweep channel: Reset	FALSE	
Step channel 1: Name	Output 2 (V)	
Step channel 1: Start (V)	0E+0	
Step channel 1: Stop (V)	0E+0	
Step channel 1: Points	5	
Step channel 1: Max slew rate (V/s)	10E+0	
Step channel 1:  Initial settling time (s)	2E+0	
Step channel 1: End settling time (s)	2E+3	
Step channel 1: Backward sweep	FALSE	
Step channel 1: Reset	FALSE	
Sweep Type	2D-Both RT	
Acquire channels	Input 1 (V);LI Demod 3 X (V)	
Filter type	None	
Order		
Cutoff frq		

[DATA]
Output 3 Setp. (V)	Input 1 [00001] (V)	LI Demod 3 X [00001] (V)	Input 1 [00002] (V)	LI Demod 3 X [00002] (V)	Input 1 [00003] (V)	LI Demod 3 X [00003] (V)	Input 1 [00004] (V)	LI Demod 3 X [00004] (V)	Input 1 [00005] (V)	LI Demod 3 X [00005] (V)	Input 1 [00001] [bwd] (V)	LI Demod 3 X [00001] [bwd] (V)	Input 1 [00002] [bwd] (V)	LI Demod 3 X [00002] [bwd] (V)	Input 1 [00003] [bwd] (V)	LI Demod 3 X [00003] [bwd] (V)	Input 1 [00004] [bwd] (V)	LI Demod 3 X [00004] [bwd] (V)	Input 1 [00005] [bwd] (V)	LI Demod 3 X [00005] [bwd] (V)
-250.00000E-3	-33.425748E-3	2.2376820E-3	-33.670384E-3	2.2412781E-3	-33.523686E-3	2.2583175E-3	-34.143530E-3	2.2556840E-3	-33.611123E-3	2.2175601E-3	-33.636078E-3	2.2492365E-3	-33.398792E-3	2.2550242E-3	-34.158267E-3	2.2422224E-3	-33.562191E-3	2.2428164E-3	-33.723183E-3	2.1970687E-3
-247.50000E-3	-32.752249E-3	2.2962827E-3	-32.998323E-3	2.2587010E-3	-32.847289E-3	2.2365111E-3	-33.513650E-3	2.2288386E-3	-32.935578E-3	2.2409132E-3	-32.965120E-3	2.2603753E-3	-32.703269E-3	2.2349693E-3	-33.476818E-3	2.2489629E-3	-32.903850E-3	2.2374894E-3	-32.995027E-3	2.3215134E-3
-245.00000E-3	-32.072563E-3	2.2525969E-3	-32.299049E-3	2.2754683E-3	-32.130796E-3	2.2618540E-3	-32.830145E-3	2.2545250E-3	-32.262076E-3	2.2321332E-3	-32.317087E-3	2.2639369E-3	-32.120392E-3	2.2382408E-3	-32.829817E-3	2.2509941E-3	-32.272547E-3	2.2050720E-3	-32.336570E-3	2.1709013E-3
-242.50001E-3	-31.403922E-3	2.2593585E-3	-31.585675E-3	2.2453447E-3	-31.425610E-3	2.2545226E-3	-32.173019E-3	2.2519296E-3	-31.632822E-3	2.2349788E-3	-31.634793E-3	2.2318608E-3	-31.328086E-3	2.2397495E-3	-32.132696E-3	2.2269301E-3	-31.565927E-3	2.2586375E-3	-31.671192E-3	2.2383651E-3
-239.99999E-3	-30.708632E-3	2.2701730E-3	-30.917626E-3	2.2686152E-3	-30.755447E-3	2.2225433E-3	-31.428657E-3	2.2378550E-3	-30.920725E-3	2.2165023E-3	-30.954001E-3	2.2210786E-3	-30.681698E-3	2.2480716E-3	-31.412914E-3	2.2217194E-3	-30.867331E-3	2.2335697E-3	-31.020662E-3	2.2921544E-3
-237.50000E-3	-30.050544E-3	2.2557524E-3	-30.284971E-3	2.2272968E-3	-30.087771E-3	2.2266568E-3	-30.696213E-3	2.2307360E-3	-30.216996E-3	2.2350575E-3	-30.261999E-3	2.2298354E-3	-29.991800E-3	2.2373882E-3	-30.747715E-3	2.2510656E-3	-30.257111E-3	2.2481335E-3	-30.334784E-3	2.1694019E-3
-235.00000E-3	-29.391063E-3	2.2333683E-3	-29.571164E-3	2.2146266E-3	-29.409278E-3	2.2386305E-3	-30.039361E-3	2.2515734E-3	-29.530147E-3	2.2451361E-3	-29.577458E-3	2.2061602E-3	-29.295897E-3	2.2454110E-3	-30.082246E-3	2.2484176E-3	-29.568855E-3	2.2415887E-3	-29.666377E-3	2.2878728E-3
-232.50000E-3	-28.663149E-3	2.2479375E-3	-28.877422E-3	2.1898933E-3	-28.749265E-3	2.1948435E-3	-29.390406E-3	2.2492439E-3	-28.899826E-3	2.2233673E-3	-28.956953E-3	2.2070617E-3	-28.623840E-3	2.2251613E-3	-29.227875E-3	2.2398005E-3	-28.877383E-3	2.2165659E-3	-28.973587E-3	2.1646158E-3
-230.00000E-3	-28.034594E-3	2.2229485E-3	-28.186781E-3	2.2149254E-3	-28.040865E-3	2.2150660E-3	-28.694168E-3	2.2318312E-3	-28.197723E-3	2.2503599E-3	-28.390145E-3	2.2463158E-3	-27.950261E-3	2.2543964E-3	-28.589882E-3	2.2687349E-3	-28.246583E-3	2.2284491E-3	-28.233163E-3	2.2990326E-3
-227.50001E-3	-27.363492E-3	2.2651854E-3	-27.536329E-3	2.2354966E-3	-27.377162E-3	2.2277520E-3	-28.041201E-3	2.2153412E-3	-27.494701E-3	2.2457903E-3	-27.668405E-3	2.2129661E-3	-27.279695E-3	2.2248079E-3	-27.880704E-3	2.2390059E-3	-27.549295E-3	2.2344373E-3	-27.553642E-3	2.2392366E-3
-224.99999E-3	-26.670510E-3	2.2493093E-3	-26.928416E-3	2.2374713E-3	-26.712721E-3	2.2421335E-3	-27.373351E-3	2.2485058E-3	-26.856201E-3	2.2465314E-3	-26.941821E-3	2.1989811E-3	-26.616860E-3	2.2395076E-3	-27.197011E-3	2.2503801E-3	-26.817696E-3	2.2311562E-3	-26.870061E-3	2.2630247E-3
-222.50000E-3	-26.005585E-3	2.2409519E-3	-26.261963E-3	2.2177200E-3	-26.071060E-3	2.2093512E-3	-26.728956E-3	2.2451854E-3	-26.227796E-3	2.2334573E-3	-26.315091E-3	2.2125659E-3	-25.928104E-3	2.2543946E-3	-26.577095E-3	2.2121293E-3	-25.895745E-3	2.2388704E-3	-26.167836E-3	2.2432848E-3
-220.00000E-3	-25.310647E-3	2.2611306E-3	-25.563959E-3	2.2285762E-3	-25.390686E-3	2.2145312E-3	-26.017543E-3	2.2234311E-3	-25.516925E-3	2.2181806E-3	-25.659064E-3	2.2480979E-3	-25.244342E-3	2.2187529E-3	-25.938636E-3	2.2073078E-3	-25.241576E-3	2.2321709E-3	-25.480622E-3	2.2515515E-3
-217.50000E-3	-24.590308E-3	2.2690000E-3	-24.876045E-3	2.2319942E-3	-24.714924E-3	2.2584973E-3	-25.338242E-3	2.2202453E-3	-24.870375E-3	2.2173042E-3	-24.998097E-3	2.2194018E-3	-24.543818E-3	2.2108199E-3	-25.272870E-3	2.2450653E-3	-24.805082E-3	2.2013583E-3	-24.853989E-3	2.2006056E-3
-215.00000E-3	-23.938686E-3	2.2156204E-3	-24.222340E-3	2.2282300E-3	-24.044937E-3	2.1905424E-3	-24.672991E-3	2.2207175E-3	-24.199991E-3	2.2066846E-3	-24.267867E-3	2.2210388E-3	-23.892816E-3	2.2275806E-3	-24.594015E-3	2.2347525E-3	-24.156300E-3	2.2307690E-3	-24.317972E-3	2.2848146E-3
-212.50001E-3	-23.267636E-3	2.2324855E-3	-23.533348E-3	2.1903419E-3	-23.365205E-3	2.2646515E-3	-23.989484E-3	2.2131072E-3	-23.522995E-3	2.2396720E-3	-23.542030E-3	2.2320417E-3	-23.211638E-3	2.2147615E-3	-23.753181E-3	2.2191950E-3	-23.468593E-3	2.2362808E-3	-23.650719E-3	2.1760969E-3
-210.00001E-3	-22.578528E-3	2.2168024E-3	-22.843963E-3	2.2193196E-3	-22.671675E-3	2.2011935E-3	-23.294168E-3	2.2155996E-3	-22.799771E-3	2.2130690E-3	-22.886822E-3	2.2200756E-3	-22.657547E-3	2.2045192E-3	-23.050455E-3	2.2373681E-3	-22.797195E-3	2.2340447E-3	-22.887798E-3	2.2436050E-3
-207.50000E-3	-21.911979E-3	2.2120436E-3	-22.169134E-3	2.2241143E-3	-22.033248E-3	2.2231485E-3	-22.621736E-3	2.1966025E-3	-22.134045E-3	2.1933541E-3	-22.221837E-3	2.2147875E-3	-21.827919E-3	2.2160842E-3	-22.406517E-3	2.2157887E-3	-22.201138E-3	2.2105670E-3	-22.124728E-3	2.1432876E-3
-205.00000E-3	-21.253107E-3	2.2147608E-3	-21.231510E-3	2.2436366E-3	-21.376673E-3	2.1571133E-3	-22.068672E-3	2.1969157E-3	-21.457056E-3	2.2189724E-3	-21.566529E-3	2.2473736E-3	-21.172015E-3	2.2308808E-3	-21.682823E-3	2.2136539E-3	-21.544391E-3	2.2197298E-3	-21.402743E-3	2.2489955E-3
-202.50000E-3	-20.633494E-3	2.2205296E-3	-20.585975E-3	2.2367106E-3	-20.672431E-3	2.2395090E-3	-21.324636E-3	2.2298670E-3	-20.775601E-3	2.1958973E-3	-20.837823E-3	2.1963627E-3	-20.502670E-3	2.1964151E-3	-21.023007E-3	2.2196069E-3	-20.841820E-3	2.2222619E-3	-20.751994E-3	2.1792219E-3
-200.00000E-3	-19.954961E-3	2.2200583E-3	-19.913500E-3	2.2236479E-3	-20.037329E-3	2.2101523E-3	-20.657098E-3	2.2243245E-3	-20.069953E-3	2.1982826E-3	-20.195194E-3	2.1978724E-3	-19.832233E-3	2.2172472E-3	-20.387424E-3	2.2241904E-3	-20.179169E-3	2.2163091E-3	-20.076079E-3	2.2136548E-3
-197.50001E-3	-19.268090E-3	2.2427421E-3	-19.211488E-3	2.2248188E-3	-19.396784E-3	2.1880108E-3	-20.045618E-3	2.1913091E-3	-19.480553E-3	2.2117707E-3	-19.520247E-3	2.1916989E-3	-19.224955E-3	2.1879682E-3	-19.833472E-3	2.1931648E-3	-19.525098E-3	2.1828001E-3	-19.398335E-3	2.2088534E-3
-194.99999E-3	-18.636893E-3	2.2234807E-3	-18.805727E-3	2.2025302E-3	-18.702034E-3	2.2255681E-3	-19.307300E-3	2.1870835E-3	-18.826576E-3	2.2192497E-3	-18.872874E-3	2.2035886E-3	-18.605359E-3	2.2068173E-3	-19.140381E-3	2.1885510E-3	-18.821014E-3	2.2160248E-3	-18.744009E-3	2.1636393E-3
-192.50000E-3	-17.969808E-3	2.1887168E-3	-18.143618E-3	2.2243739E-3	-18.020378E-3	2.1787742E-3	-18.611951E-3	2.2074454E-3	-18.156180E-3	2.1992705E-3	-18.242804E-3	2.2327171E-3	-17.932734E-3	2.2048871E-3	-18.466398E-3	2.2042529E-3	-18.107988E-3	2.2153654E-3	-18.041316E-3	2.2378899E-3
-190.00000E-3	-17.320028E-3	2.1694789E-3	-17.437821E-3	2.2000831E-3	-17.353579E-3	2.2337304E-3	-17.969862E-3	2.1837621E-3	-17.488355E-3	2.1933441E-3	-17.576938E-3	2.1914488E-3	-17.242430E-3	2.2059218E-3	-17.762389E-3	2.1991010E-3	-17.474819E-3	2.2147796E-3	-17.426914E-3	2.1358405E-3
-187.50000E-3	-16.628744E-3	2.2176204E-3	-16.777223E-3	2.1995550E-3	-16.711753E-3	2.1558721E-3	-17.346140E-3	2.2092168E-3	-16.850825E-3	2.1909310E-3	-16.918615E-3	2.2200022E-3	-16.567489E-3	2.2006545E-3	-17.015794E-3	2.1989834E-3	-16.798953E-3	2.1898209E-3	-16.764957E-3	2.2330403E-3
-185.00000E-3	-15.990948E-3	2.2114876E-3	-15.939012E-3	2.1920439E-3	-16.055059E-3	2.1883976E-3	-16.664881E-3	2.1831603E-3	-16.203623E-3	2.1810988E-3	-16.266029E-3	2.2066585E-3	-15.925294E-3	2.1802811E-3	-16.360909E-3	2.1929084E-3	-16.135585E-3	2.1894753E-3	-16.090177E-3	2.2017525E-3
-182.50000E-3	-15.335129E-3	2.2129645E-3	-15.343469E-3	2.1837039E-3	-15.371851E-3	2.2007760E-3	-16.004276E-3	2.1708510E-3	-15.483820E-3	2.1981965E-3	-15.611806E-3	2.1969522E-3	-15.233396E-3	2.2128057E-3	-15.696486E-3	2.2114750E-3	-15.464551E-3	2.1988912E-3	-15.450726E-3	2.1870267E-3
-180.00001E-3	-14.610661E-3	2.1519153E-3	-14.710586E-3	2.1927394E-3	-14.714485E-3	2.1670447E-3	-15.339311E-3	2.2124972E-3	-14.822925E-3	2.1771914E-3	-14.900784E-3	2.2134660E-3	-14.538077E-3	2.2045388E-3	-15.038163E-3	2.1923771E-3	-14.980656E-3	2.1722200E-3	-14.808632E-3	2.2212712E-3
-177.50001E-3	-13.983749E-3	2.1706910E-3	-14.070328E-3	2.1969997E-3	-14.065202E-3	2.2066599E-3	-14.659962E-3	2.1828506E-3	-14.174507E-3	2.2036061E-3	-14.251586E-3	2.2233389E-3	-13.875801E-3	2.1958458E-3	-14.384896E-3	2.1867896E-3	-14.313779E-3	2.2351358E-3	-14.264055E-3	2.1427753E-3
-175.00001E-3	-13.309891E-3	2.2169424E-3	-13.440398E-3	2.1865466E-3	-13.582404E-3	2.2113279E-3	-13.960009E-3	2.1978491E-3	-13.523506E-3	2.1792010E-3	-13.562717E-3	2.1930444E-3	-13.220604E-3	2.1952186E-3	-13.720200E-3	2.1973450E-3	-13.632013E-3	2.1847999E-3	-13.608481E-3	2.2052370E-3
-172.50000E-3	-12.641359E-3	2.1704882E-3	-12.768274E-3	2.1716433E-3	-12.883172E-3	2.1680912E-3	-13.198416E-3	2.1824255E-3	-12.835104E-3	2.1852732E-3	-12.909043E-3	2.2126664E-3	-12.570605E-3	2.1631338E-3	-13.034619E-3	2.1582369E-3	-12.966496E-3	2.1967464E-3	-12.930222E-3	2.1644905E-3
-170.00000E-3	-12.020694E-3	2.1247647E-3	-12.126243E-3	2.1634214E-3	-12.111823E-3	2.1828713E-3	-12.558539E-3	2.1870348E-3	-12.180849E-3	2.2066156E-3	-12.256629E-3	2.1715001E-3	-11.909052E-3	2.2024929E-3	-12.385709E-3	2.1970072E-3	-12.317003E-3	2.1864159E-3	-12.305070E-3	2.2156762E-3
-167.50000E-3	-11.357927E-3	2.1901175E-3	-11.629710E-3	2.1978070E-3	-11.377136E-3	2.2256605E-3	-11.867560E-3	2.1337306E-3	-11.562338E-3	2.1986843E-3	-11.593220E-3	2.1708789E-3	-11.276966E-3	2.1899038E-3	-11.684420E-3	2.1543906E-3	-11.605472E-3	2.1869298E-3	-11.622273E-3	2.1243214E-3
-164.99999E-3	-10.701962E-3	2.2297644E-3	-10.990329E-3	2.1553193E-3	-10.727891E-3	2.1842141E-3	-11.250955E-3	2.1823458E-3	-10.871869E-3	2.1636728E-3	-10.949124E-3	2.1539009E-3	-10.645300E-3	2.1974524E-3	-11.044309E-3	2.1827610E-3	-10.932554E-3	2.2450171E-3	-10.980422E-3	2.2125896E-3
-162.49999E-3	-10.045649E-3	2.1637040E-3	-10.372183E-3	2.2065407E-3	-10.106022E-3	2.1711087E-3	-10.587206E-3	2.1825903E-3	-10.214124E-3	2.2009190E-3	-10.307237E-3	2.1541768E-3	-9.9731740E-3	2.1722901E-3	-10.407723E-3	2.1597173E-3	-10.262087E-3	2.1811021E-3	-10.330126E-3	2.1324733E-3
-160.00000E-3	-9.3923053E-3	2.1340998E-3	-9.6338084E-3	2.1890276E-3	-9.5904404E-3	2.1368924E-3	-9.9120475E-3	2.1893948E-3	-9.4908988E-3	2.1918118E-3	-9.6398294E-3	2.1750464E-3	-9.3211913E-3	2.1769963E-3	-9.7220074E-3	2.1683031E-3	-9.6143298E-3	2.1846713E-3	-9.6608670E-3	2.1654002E-3
-157.50000E-3	-8.7288199E-3	2.2060149E-3	-8.9488234E-3	2.1966028E-3	-8.9529715E-3	2.1476434E-3	-9.2073744E-3	2.1715728E-3	-8.8504013E-3	2.1988808E-3	-8.9358808E-3	2.2312563E-3	-8.6875344E-3	2.1840525E-3	-9.0550436E-3	2.1827202E-3	-8.9706648E-3	2.1879920E-3	-9.0132337E-3	2.2141300E-3
-155.00000E-3	-8.0574295E-3	2.1970733E-3	-8.3389059E-3	2.1940339E-3	-8.2851890E-3	2.2138297E-3	-8.3388807E-3	2.1723025E-3	-8.1855841E-3	2.1714647E-3	-8.3024437E-3	2.2476816E-3	-8.1468849E-3	2.1874318E-3	-8.3881607E-3	2.1696372E-3	-8.4029352E-3	2.1929706E-3	-8.3118360E-3	2.1563373E-3
-152.50000E-3	-7.4778064E-3	2.1535277E-3	-7.7529154E-3	2.2208726E-3	-7.6436158E-3	2.2061882E-3	-7.5723086E-3	2.1634719E-3	-7.5040385E-3	2.1857314E-3	-7.6318905E-3	2.1381148E-3	-7.4554505E-3	2.1780527E-3	-7.7296179E-3	2.2028962E-3	-7.7876919E-3	2.1789956E-3	-7.6522231E-3	2.2480295E-3
-150.00001E-3	-6.9863345E-3	2.1452454E-3	-7.0778942E-3	2.2279748E-3	-6.9755255E-3	2.2059742E-3	-6.8971799E-3	2.1775267E-3	-6.8081706E-3	2.1654672E-3	-6.9958363E-3	2.1722238E-3	-6.7651565E-3	2.1601038E-3	-7.0740404E-3	2.1967317E-3	-7.0460420E-3	2.1871834E-3	-7.0144595E-3	2.0753869E-3
-147.50001E-3	-6.3311663E-3	2.1653420E-3	-6.4037708E-3	2.1719174E-3	-6.3105165E-3	2.1624228E-3	-6.2557841E-3	2.1807523E-3	-6.1586048E-3	2.1971678E-3	-6.3686077E-3	2.2087097E-3	-6.1214129E-3	2.1956973E-3	-6.4174342E-3	2.1749747E-3	-6.4006140E-3	2.1776303E-3	-6.1926711E-3	2.1696698E-3
-145.00001E-3	-5.5947229E-3	2.1954475E-3	-5.7368805E-3	2.1884870E-3	-5.6401179E-3	2.1497470E-3	-5.5584963E-3	2.1875747E-3	-5.5196504E-3	2.1938307E-3	-5.7272771E-3	2.1483793E-3	-5.4806457E-3	2.1780988E-3	-5.7577821E-3	2.1631382E-3	-5.7241661E-3	2.1755390E-3	-5.5449205E-3	2.1985862E-3
-142.50001E-3	-4.9356078E-3	2.2111223E-3	-5.0673299E-3	2.1916300E-3	-5.0073862E-3	2.1916619E-3	-4.9482901E-3	2.1812865E-3	-4.8845862E-3	2.1621268E-3	-5.0556348E-3	2.1767416E-3	-4.8333667E-3	2.1979536E-3	-5.1294658E-3	2.1898930E-3	-5.0850315E-3	2.1827382E-3	-4.8696576E-3	2.0923866E-3
-140.00000E-3	-4.2489045E-3	2.1639795E-3	-4.4040866E-3	2.1481493E-3	-4.3437639E-3	2.2203573E-3	-4.2870725E-3	2.1815393E-3	-4.2131725E-3	2.1731390E-3	-4.3940861E-3	2.2179584E-3	-4.1731778E-3	2.1721015E-3	-4.4588228E-3	2.1766948E-3	-4.4978643E-3	2.1767984E-3	-4.2142589E-3	2.2364042E-3
-137.50000E-3	-3.5834559E-3	2.1759372E-3	-3.7428783E-3	2.1486976E-3	-3.6817882E-3	2.1775519E-3	-3.6184734E-3	2.1713097E-3	-3.5764568E-3	2.1797786E-3	-3.7659775E-3	2.1492979E-3	-3.5327382E-3	2.2008296E-3	-3.7514672E-3	2.1782732E-3	-3.8062010E-3	2.1966782E-3	-3.5872178E-3	2.1135360E-3
-135.00001E-3	-2.9034007E-3	2.1754073E-3	-3.1229146E-3	2.1603708E-3	-3.0232046E-3	2.1561859E-3	-2.9817331E-3	2.1983555E-3	-3.0885942E-3	2.1552274E-3	-3.0800262E-3	2.1565678E-3	-2.9013278E-3	2.2016950E-3	-3.0482882E-3	2.1679138E-3	-3.1667610E-3	2.1768135E-3	-2.9223249E-3	2.2008091E-3
-132.49999E-3	-2.2522968E-3	2.1804189E-3	-2.4154333E-3	2.1634053E-3	-2.3734986E-3	2.1785486E-3	-2.3438358E-3	2.1561186E-3	-2.4372996E-3	2.1876988E-3	-2.4671927E-3	2.2376257E-3	-2.2465945E-3	2.1968789E-3	-2.5572358E-3	2.1742557E-3	-2.4860257E-3	2.1890351E-3	-2.3474661E-3	2.1312868E-3
-130.00000E-3	-1.5982691E-3	2.1516304E-3	-1.7108896E-3	2.1657392E-3	-1.7142077E-3	2.1890989E-3	-1.8155859E-3	2.1875270E-3	-1.7768559E-3	2.1474899E-3	-1.7558532E-3	2.0966646E-3	-1.5893908E-3	2.1719853E-3	-1.8898351E-3	2.1543365E-3	-1.9290631E-3	2.1761842E-3	-1.7023074E-3	2.2139971E-3
-127.50000E-3	-958.97651E-6	2.1277359E-3	-1.0562631E-3	2.1655601E-3	-1.0710713E-3	2.1445749E-3	-1.0355025E-3	2.1644258E-3	-1.1770829E-3	2.1941003E-3	-813.96918E-6	2.1534075E-3	-948.97888E-6	2.1824576E-3	-1.2412725E-3	2.1788108E-3	-1.2712085E-3	2.1878197E-3	-1.1729803E-3	2.1086754E-3
-125.00000E-3	-295.05178E-6	2.2376375E-3	-406.77530E-6	2.2010163E-3	-409.24639E-6	2.2247615E-3	-346.44411E-6	2.1727746E-3	-475.07649E-6	2.1923606E-3	-164.97209E-6	2.2787142E-3	-409.82035E-6	2.1517475E-3	-660.21190E-6	2.1753036E-3	-619.08766E-6	2.1985490E-3	-512.76491E-6	2.2110709E-3
-122.50000E-3	346.90893E-6	2.1923063E-3	213.90994E-6	2.1926865E-3	225.69488E-6	2.1448431E-3	405.97259E-6	2.1639362E-3	236.47415E-6	2.1771237E-3	494.22757E-6	2.1908418E-3	156.25403E-6	2.1755060E-3	10.074404E-6	2.1736561E-3	78.063531E-6	2.1933380E-3	150.13876E-6	2.1716114E-3
-120.00000E-3	1.0163534E-3	2.1425229E-3	907.19690E-6	2.1853293E-3	971.37963E-6	2.2200074E-3	1.0630527E-3	2.1946006E-3	872.60816E-6	2.1820148E-3	1.1450163E-3	2.1457286E-3	679.67566E-6	2.1787365E-3	659.13098E-6	2.1647825E-3	804.81602E-6	2.1832956E-3	808.98654E-6	2.1439164E-3
-117.50001E-3	1.6802308E-3	2.1508907E-3	1.5614869E-3	2.2131803E-3	1.6621540E-3	2.1564255E-3	1.7229496E-3	2.1760412E-3	1.5666122E-3	2.1907464E-3	1.7969453E-3	2.1347203E-3	1.3954014E-3	2.1782699E-3	1.2885429E-3	2.1594474E-3	1.4776470E-3	2.1811109E-3	1.5343383E-3	2.1951443E-3
-115.00001E-3	2.3456309E-3	2.2128620E-3	2.2130520E-3	2.1751332E-3	2.3119187E-3	2.2103121E-3	2.3753629E-3	2.1754073E-3	2.2167037E-3	2.1753206E-3	2.2217399E-3	2.1907031E-3	2.0465332E-3	2.1675853E-3	1.9304847E-3	2.1490469E-3	2.1286819E-3	2.1656842E-3	2.2506642E-3	2.1977806E-3
-112.50000E-3	2.9826232E-3	2.1407960E-3	2.8735604E-3	2.1537775E-3	2.9710357E-3	2.1606474E-3	3.0470688E-3	2.1486161E-3	2.7600329E-3	2.2015930E-3	2.8218497E-3	2.1783626E-3	2.7007528E-3	2.1797509E-3	2.5771458E-3	2.1715774E-3	2.6727780E-3	2.1746277E-3	2.9107362E-3	2.1778955E-3
-110.00000E-3	3.6392708E-3	2.1191835E-3	3.5701366E-3	2.1753544E-3	3.6630791E-3	2.1528234E-3	3.6506732E-3	2.1881605E-3	3.3516618E-3	2.1894006E-3	3.4874070E-3	2.2400243E-3	3.3403183E-3	2.1799074E-3	3.2431330E-3	2.1657750E-3	3.4402737E-3	2.1637906E-3	3.5847544E-3	2.1194245E-3
-107.50000E-3	4.3186625E-3	2.2252875E-3	4.2088898E-3	2.2388194E-3	4.3231621E-3	2.2245897E-3	4.3201935E-3	2.1899682E-3	4.0168515E-3	2.1965492E-3	4.1494896E-3	2.1972773E-3	4.0382040E-3	2.1802224E-3	3.8888538E-3	2.1719399E-3	4.1092215E-3	2.2136709E-3	4.2068739E-3	2.1708249E-3
-105.00000E-3	4.9795508E-3	2.1462108E-3	4.8576579E-3	2.1706661E-3	4.9517183E-3	2.1893790E-3	5.0098477E-3	2.1655431E-3	4.7232118E-3	2.2117384E-3	4.7845193E-3	2.1260751E-3	4.6839449E-3	2.1740934E-3	4.5329859E-3	2.1975334E-3	4.8625958E-3	2.1853955E-3	4.8076636E-3	2.2284200E-3
-102.50001E-3	5.6352695E-3	2.2195417E-3	5.5551273E-3	2.1805570E-3	5.6450856E-3	2.1648016E-3	5.6474251E-3	2.2230158E-3	5.3360937E-3	2.2007728E-3	5.3313402E-3	2.1722452E-3	5.3201569E-3	2.2087309E-3	5.2122716E-3	2.1669776E-3	5.5439426E-3	2.2203289E-3	5.5444953E-3	2.2079209E-3
-100.00001E-3	6.2910700E-3	2.1737067E-3	6.2185717E-3	2.2150911E-3	6.2483703E-3	2.2029488E-3	6.3242097E-3	2.2253837E-3	5.9846849E-3	2.2295853E-3	5.9723156E-3	2.2153466E-3	5.9747570E-3	2.2088327E-3	5.8437986E-3	2.2041535E-3	6.1931643E-3	2.2092059E-3	6.2283878E-3	2.1907995E-3
-97.499996E-3	6.9609135E-3	2.2354366E-3	6.8840026E-3	2.2318070E-3	6.9005960E-3	2.2530474E-3	7.0032179E-3	2.2296598E-3	6.6704452E-3	2.2522437E-3	6.7524733E-3	2.2568549E-3	6.6505559E-3	2.2359870E-3	6.5286444E-3	2.2376548E-3	6.9054011E-3	2.2031292E-3	6.8932455E-3	2.1959885E-3
-94.999999E-3	7.6505444E-3	2.2077370E-3	7.5875996E-3	2.2739784E-3	7.6176301E-3	2.2293967E-3	7.7162161E-3	2.2452960E-3	7.3544155E-3	2.2663032E-3	7.4504837E-3	2.2955092E-3	7.3292623E-3	2.2485319E-3	7.2345375E-3	2.2652859E-3	7.5348662E-3	2.2463063E-3	7.5911158E-3	2.2387519E-3
-92.500001E-3	8.3105201E-3	2.2991851E-3	8.2312394E-3	2.2959779E-3	8.2852785E-3	2.2193787E-3	8.4082065E-3	2.2696017E-3	8.0054840E-3	2.2756979E-3	8.1494777E-3	2.2872800E-3	8.0235219E-3	2.2670110E-3	7.9254806E-3	2.2642957E-3	8.1410622E-3	2.2899110E-3	8.2611619E-3	2.2562146E-3
-90.000004E-3	9.0134051E-3	2.2377707E-3	8.9207711E-3	2.3073917E-3	8.9514675E-3	2.2609371E-3	9.0566641E-3	2.2784502E-3	8.6799664E-3	2.3040792E-3	8.8511165E-3	2.3027731E-3	8.8184671E-3	2.3215720E-3	8.5781133E-3	2.3190337E-3	8.8558206E-3	2.2835671E-3	8.9665335E-3	2.2970140E-3
-87.500006E-3	9.7445128E-3	2.3558310E-3	9.6084876E-3	2.3148814E-3	9.6390164E-3	2.3529003E-3	9.8026730E-3	2.3020152E-3	9.3562631E-3	2.3162882E-3	9.5823612E-3	2.2804628E-3	9.4817737E-3	2.3414348E-3	9.2411777E-3	2.3049193E-3	9.5177004E-3	2.3115564E-3	9.6584726E-3	2.3352003E-3
-85.000008E-3	10.411697E-3	2.3208277E-3	10.306471E-3	2.3642885E-3	10.323901E-3	2.3776365E-3	10.517027E-3	2.3565870E-3	10.076349E-3	2.3700322E-3	10.280828E-3	2.3333435E-3	10.220270E-3	2.3533972E-3	10.004360E-3	2.3517848E-3	10.222035E-3	2.3464882E-3	10.345592E-3	2.3548729E-3
-82.500011E-3	11.174387E-3	2.4306686E-3	10.999908E-3	2.4029457E-3	11.036701E-3	2.4369475E-3	11.207084E-3	2.4053766E-3	10.823512E-3	2.3849537E-3	11.023682E-3	2.3699915E-3	10.968404E-3	2.4052702E-3	10.766093E-3	2.3743976E-3	10.917306E-3	2.4089187E-3	11.112067E-3	2.3952078E-3
-79.999998E-3	11.877559E-3	2.4434703E-3	11.720890E-3	2.4438864E-3	11.803635E-3	2.4842771E-3	11.822572E-3	2.4290499E-3	11.577721E-3	2.4482815E-3	11.881487E-3	2.4022989E-3	11.724414E-3	2.4485006E-3	11.570843E-3	2.4526205E-3	11.748086E-3	2.4555181E-3	11.820183E-3	2.4640963E-3
-77.500001E-3	12.586559E-3	2.4697022E-3	12.473513E-3	2.4782964E-3	12.564006E-3	2.5092270E-3	12.659729E-3	2.4784901E-3	12.281863E-3	2.5059755E-3	12.618637E-3	2.4705720E-3	12.477531E-3	2.5119663E-3	12.301209E-3	2.5188862E-3	12.500962E-3	2.5263834E-3	12.579682E-3	2.5081991E-3
-75.000003E-3	13.300385E-3	2.5981481E-3	13.247106E-3	2.5331138E-3	13.337379E-3	2.5365509E-3	13.438766E-3	2.5682917E-3	13.097126E-3	2.5733723E-3	13.374359E-3	2.5345574E-3	13.236355E-3	2.5617557E-3	13.039215E-3	2.5589715E-3	13.281756E-3	2.5537715E-3	13.370974E-3	2.5940193E-3
-72.500005E-3	14.125497E-3	2.7144135E-3	14.046459E-3	2.6336126E-3	14.119875E-3	2.6718166E-3	14.175489E-3	2.6397880E-3	13.939549E-3	2.6289097E-3	14.170511E-3	2.6645393E-3	13.984462E-3	2.6391973E-3	13.842849E-3	2.6331714E-3	14.066692E-3	2.6426208E-3	14.143159E-3	2.6752753E-3
-70.000008E-3	14.975109E-3	2.7420942E-3	14.890471E-3	2.7633181E-3	14.931106E-3	2.7531069E-3	14.982032E-3	2.7502852E-3	14.727743E-3	2.7690325E-3	14.979403E-3	2.7807693E-3	14.814508E-3	2.7597656E-3	14.677797E-3	2.7415573E-3	14.910978E-3	2.7354746E-3	14.965847E-3	2.7428665E-3
-67.500010E-3	15.743839E-3	2.8510301E-3	15.704930E-3	2.8774692E-3	15.807210E-3	2.8875510E-3	15.829774E-3	2.8694873E-3	15.582382E-3	2.8459209E-3	15.848177E-3	2.8575433E-3	15.660377E-3	2.8463898E-3	15.519337E-3	2.8680835E-3	15.716877E-3	2.8713236E-3	15.838973E-3	2.8594604E-3
-64.999998E-3	16.734507E-3	2.9714038E-3	16.636066E-3	2.9542602E-3	16.693307E-3	2.9856376E-3	16.658133E-3	2.9656207E-3	16.455362E-3	2.9599771E-3	16.772194E-3	3.0057533E-3	16.512996E-3	2.9902023E-3	16.425546E-3	2.9802462E-3	16.564252E-3	2.9739272E-3	16.722426E-3	2.9510818E-3
-62.500000E-3	17.666196E-3	3.1075436E-3	17.595196E-3	3.1230268E-3	17.604100E-3	3.1003971E-3	17.581131E-3	3.0902831E-3	17.360605E-3	3.0910796E-3	17.673112E-3	3.1043009E-3	17.445475E-3	3.0985468E-3	17.340111E-3	3.0888256E-3	17.470766E-3	3.0791650E-3	17.606899E-3	3.0533022E-3
-60.000002E-3	18.653704E-3	3.2477204E-3	18.543715E-3	3.2407590E-3	18.583842E-3	3.2483148E-3	18.515985E-3	3.2043599E-3	18.452786E-3	3.2058107E-3	18.593017E-3	3.2320349E-3	18.371044E-3	3.2243268E-3	18.280525E-3	3.2074410E-3	18.424602E-3	3.2007247E-3	18.587604E-3	3.1922448E-3
-57.500005E-3	19.663533E-3	3.4021684E-3	19.563083E-3	3.3564977E-3	19.535914E-3	3.3482814E-3	19.514073E-3	3.3276093E-3	19.476684E-3	3.3581278E-3	19.603707E-3	3.3791962E-3	19.388562E-3	3.3525722E-3	19.260600E-3	3.3391295E-3	19.384187E-3	3.3629267E-3	19.633885E-3	3.3730383E-3
-55.000007E-3	20.724729E-3	3.5276979E-3	20.617848E-3	3.4875888E-3	20.534901E-3	3.4971021E-3	20.533500E-3	3.4512032E-3	20.493580E-3	3.4856482E-3	20.597722E-3	3.4702467E-3	20.411661E-3	3.4726115E-3	20.295810E-3	3.4570226E-3	20.475160E-3	3.4965514E-3	20.708399E-3	3.5037340E-3
-52.500010E-3	21.791520E-3	3.5730661E-3	21.671604E-3	3.5816820E-3	21.637060E-3	3.5801053E-3	21.575177E-3	3.5523898E-3	21.415656E-3	3.5948637E-3	21.661619E-3	3.5684020E-3	21.434179E-3	3.5970530E-3	21.345718E-3	3.5763262E-3	21.561084E-3	3.5600781E-3	21.746056E-3	3.6162224E-3
-50.000012E-3	22.865843E-3	3.5885859E-3	22.703839E-3	3.6150697E-3	22.708332E-3	3.6731034E-3	22.553269E-3	3.5950062E-3	22.489484E-3	3.6438194E-3	22.755688E-3	3.6254379E-3	22.496602E-3	3.6410259E-3	22.440298E-3	3.5971669E-3	22.774415E-3	3.6105427E-3	22.849461E-3	3.6436350E-3
-47.499999E-3	23.914171E-3	3.5683450E-3	23.754351E-3	3.5686947E-3	23.772191E-3	3.6239328E-3	23.538787E-3	3.5842671E-3	23.531307E-3	3.5754093E-3	23.773780E-3	3.5831339E-3	23.575922E-3	3.5939158E-3	23.387402E-3	3.5969175E-3	23.808651E-3	3.5680803E-3	23.840278E-3	3.6223112E-3
-45.000002E-3	24.860369E-3	3.4275597E-3	24.704481E-3	3.4040408E-3	24.775308E-3	3.4395608E-3	24.509795E-3	3.3804297E-3	24.566788E-3	3.4433438E-3	24.748683E-3	3.4226088E-3	24.564071E-3	3.4263092E-3	24.463292E-3	3.4300098E-3	24.830472E-3	3.4161143E-3	24.859419E-3	3.4713445E-3
-42.500004E-3	25.792418E-3	3.1925440E-3	25.665186E-3	3.1053300E-3	25.683420E-3	3.1809574E-3	25.446314E-3	3.1520277E-3	25.697555E-3	3.1487648E-3	25.642572E-3	3.0805850E-3	25.492039E-3	3.1505399E-3	25.428312E-3	3.1208058E-3	25.722420E-3	3.1400276E-3	25.761388E-3	3.1531597E-3
-40.000007E-3	26.637454E-3	2.7932192E-3	26.754845E-3	2.7722376E-3	26.539464E-3	2.7789755E-3	26.270678E-3	2.7815711E-3	26.565861E-3	2.7448907E-3	26.566176E-3	2.6819126E-3	26.373902E-3	2.7943361E-3	26.290201E-3	2.7793150E-3	26.555054E-3	2.7439401E-3	26.609315E-3	2.7540158E-3
-37.500009E-3	27.412711E-3	2.2948121E-3	27.516427E-3	2.3049104E-3	27.282592E-3	2.3376408E-3	27.220124E-3	2.3345985E-3	27.308505E-3	2.3146819E-3	27.370878E-3	2.2612798E-3	27.117232E-3	2.3513599E-3	27.080934E-3	2.3468614E-3	27.265362E-3	2.3195730E-3	27.358735E-3	2.3473308E-3
-35.000011E-3	28.046917E-3	1.9059805E-3	28.159983E-3	1.8627676E-3	27.926665E-3	1.8573068E-3	27.900895E-3	1.9055849E-3	27.956886E-3	1.8624333E-3	28.007420E-3	1.8059232E-3	27.761394E-3	1.8703412E-3	27.703904E-3	1.8708608E-3	27.944298E-3	1.8487297E-3	28.004901E-3	1.8245657E-3
-32.499999E-3	28.519390E-3	1.4528633E-3	28.696962E-3	1.4569239E-3	28.438874E-3	1.4871502E-3	28.407823E-3	1.4421190E-3	28.438890E-3	1.4461977E-3	28.565863E-3	1.3764257E-3	28.290138E-3	1.4332591E-3	28.233103E-3	1.4619780E-3	28.539577E-3	1.4392715E-3	28.520646E-3	1.4242438E-3
-30.000001E-3	28.951928E-3	1.0316770E-3	29.153626E-3	1.1112087E-3	28.861869E-3	1.1033973E-3	28.870435E-3	1.0777361E-3	28.708829E-3	1.1042705E-3	28.982995E-3	1.0221867E-3	28.726876E-3	1.1017156E-3	28.677141E-3	1.0838938E-3	29.009070E-3	1.0676178E-3	28.917268E-3	1.0785366E-3
-27.500004E-3	29.267784E-3	835.71248E-6	29.463952E-3	772.90949E-6	29.210821E-3	810.08353E-6	29.185306E-3	774.91853E-6	29.013589E-3	800.95418E-6	29.321562E-3	741.22846E-6	29.023610E-3	806.08553E-6	28.984740E-3	768.99654E-6	29.326953E-3	789.97639E-6	29.246924E-3	778.72415E-6
-25.000006E-3	29.483637E-3	494.19183E-6	29.655559E-3	525.55400E-6	29.361971E-3	554.47640E-6	29.420506E-3	575.23849E-6	29.249851E-3	546.61743E-6	29.578982E-3	575.70048E-6	29.200120E-3	598.25031E-6	29.248854E-3	553.02912E-6	29.526841E-3	564.33241E-6	29.466730E-3	525.87310E-6
-22.500008E-3	29.643647E-3	391.82566E-6	29.818589E-3	366.89779E-6	29.497385E-3	400.06981E-6	29.542560E-3	397.53804E-6	29.410148E-3	409.96805E-6	29.736735E-3	459.62198E-6	29.365193E-3	386.79774E-6	29.517042E-3	373.34510E-6	29.687839E-3	413.81319E-6	29.642368E-3	380.88165E-6
-20.000011E-3	29.760716E-3	322.43505E-6	29.948859E-3	264.44223E-6	29.616416E-3	291.57262E-6	29.662337E-3	284.35074E-6	29.517675E-3	256.88228E-6	29.843029E-3	380.53829E-6	29.513778E-3	276.56218E-6	29.644765E-3	235.69226E-6	29.780358E-3	243.77811E-6	29.757297E-3	264.82504E-6
-17.499998E-3	29.856134E-3	130.09817E-6	30.027671E-3	204.02142E-6	29.693525E-3	191.33983E-6	29.768612E-3	164.66631E-6	29.590478E-3	190.16916E-6	29.920070E-3	240.67242E-6	29.608084E-3	183.26676E-6	29.696278E-3	225.12495E-6	29.820153E-3	195.01848E-6	29.860793E-3	197.18512E-6
-15.000001E-3	29.913271E-3	128.06826E-6	29.992551E-3	151.24869E-6	29.850449E-3	115.66812E-6	29.825786E-3	110.17670E-6	29.633077E-3	125.93428E-6	29.997814E-3	132.91319E-6	29.666550E-3	107.84304E-6	29.548690E-3	109.15840E-6	29.993298E-3	109.69901E-6	29.929208E-3	124.76764E-6
-12.500003E-3	29.947201E-3	125.68088E-6	30.036623E-3	94.187810E-6	29.883087E-3	102.05201E-6	29.858511E-3	76.291872E-6	29.692244E-3	76.672572E-6	30.040197E-3	14.808416E-6	29.697528E-3	43.206055E-6	29.797833E-3	58.472797E-6	30.036543E-3	99.261313E-6	29.989734E-3	77.126395E-6
-10.000005E-3	29.886512E-3	-3.6845074E-6	30.042320E-3	13.617613E-6	29.938575E-3	51.380997E-6	29.871825E-3	38.957733E-6	29.747391E-3	47.437126E-6	30.067751E-3	-15.961923E-6	29.762307E-3	34.397137E-6	29.834010E-3	33.820921E-6	30.055700E-3	63.981250E-6	30.031184E-3	69.164656E-6
-7.5000077E-3	29.912133E-3	32.182419E-6	30.073153E-3	44.345965E-6	29.981637E-3	52.689349E-6	29.953457E-3	22.535411E-6	29.787909E-3	49.900551E-6	30.094011E-3	44.401291E-6	29.777415E-3	57.737852E-6	29.794879E-3	22.405316E-6	30.110596E-3	13.069024E-6	30.028045E-3	67.524466E-6
-5.0000101E-3	29.943274E-3	77.093122E-6	30.144667E-3	2.6096097E-6	29.956013E-3	21.965290E-6	29.941646E-3	33.408000E-6	29.784067E-3	20.243837E-6	30.114647E-3	122.51020E-6	29.794922E-3	2.9582718E-6	29.820405E-3	30.808515E-6	29.992711E-3	5.9882268E-6	29.982891E-3	35.371209E-6
-2.5000125E-3	30.006925E-3	-13.335439E-6	30.143900E-3	26.842394E-6	29.988341E-3	37.410686E-6	29.960351E-3	14.098889E-6	29.775519E-3	24.582538E-6	30.132430E-3	87.388158E-6	29.791478E-3	-29.384282E-6	29.873176E-3	25.786539E-6	30.048730E-3	39.004342E-6	30.010238E-3	25.370251E-6
0.0000000E+0	30.009195E-3	-10.195384E-6	30.114902E-3	4.7719022E-6	30.012894E-3	15.527863E-6	30.015841E-3	-21.348231E-6	29.802551E-3	11.348057E-6	30.099262E-3	13.790639E-6	29.805465E-3	-12.108053E-6	29.886635E-3	13.146931E-6	30.069096E-3	9.4612451E-6	30.032894E-3	17.286857E-6
2.4999976E-3	29.958561E-3	74.201445E-6	30.111669E-3	8.8426523E-6	29.975912E-3	22.882819E-6	29.969800E-3	6.3490761E-6	29.814726E-3	29.222532E-6	30.121857E-3	-58.310867E-6	29.798752E-3	5.4748198E-6	29.883901E-3	-1.1297369E-6	30.069174E-3	-2.3888069E-6	30.055145E-3	22.057942E-6
4.9999952E-3	30.035602E-3	30.424694E-9	30.104255E-3	10.842477E-6	30.005440E-3	33.869655E-6	29.927155E-3	-16.053380E-6	29.796837E-3	-11.236367E-6	30.108575E-3	-10.827039E-6	29.807871E-3	-13.984328E-6	29.862048E-3	14.531313E-6	30.093359E-3	26.812459E-6	30.057540E-3	-9.8959044E-6
7.4999928E-3	30.164767E-3	-5.4023126E-6	30.139191E-3	29.898671E-6	30.014828E-3	56.154182E-6	29.912250E-3	12.924628E-6	29.767653E-3	4.8656316E-6	30.131700E-3	99.817080E-6	29.786762E-3	26.102871E-6	29.851377E-3	-30.504703E-6	30.037507E-3	-12.035320E-6	30.058708E-3	-4.7165108E-6
9.9999905E-3	30.140124E-3	60.076909E-6	30.117774E-3	19.481313E-6	30.011104E-3	36.294554E-6	29.891841E-3	23.494030E-9	29.862350E-3	22.442153E-6	30.110892E-3	62.449384E-6	29.807206E-3	22.440086E-6	29.884638E-3	20.433836E-6	30.159665E-3	48.031852E-6	30.022552E-3	8.2209381E-6
12.499988E-3	30.167464E-3	54.480151E-6	30.192524E-3	12.699312E-6	29.959263E-3	58.601679E-6	29.895769E-3	8.8661609E-6	29.907528E-3	34.055716E-6	30.135946E-3	-39.834285E-6	29.976945E-3	41.043397E-6	29.920902E-3	28.508986E-6	30.221848E-3	19.731493E-6	30.017812E-3	25.327770E-6
14.999986E-3	29.958216E-3	-4.3577047E-6	30.249048E-3	41.154672E-6	29.973827E-3	78.907819E-6	29.879302E-3	17.693153E-6	29.893482E-3	51.080282E-6	30.166315E-3	74.494135E-6	30.125255E-3	50.973915E-6	29.892216E-3	26.337277E-6	30.252092E-3	54.897417E-6	30.021368E-3	16.618564E-6
17.499983E-3	29.974336E-3	90.709975E-6	30.295875E-3	93.421782E-6	29.999122E-3	100.97682E-6	30.020962E-3	70.003181E-6	29.919894E-3	88.262255E-6	30.088538E-3	132.74080E-6	30.205034E-3	81.002043E-6	29.905062E-3	74.220836E-6	30.287065E-3	68.195492E-6	30.088369E-3	95.346433E-6
19.999981E-3	30.148754E-3	114.34843E-6	30.349229E-3	117.96520E-6	30.032972E-3	111.29896E-6	30.064903E-3	111.74096E-6	29.975630E-3	110.91762E-6	30.161418E-3	38.049409E-6	30.373368E-3	111.84218E-6	29.952541E-3	131.30516E-6	30.301956E-3	116.55406E-6	30.097704E-3	138.96583E-6
22.500008E-3	30.216262E-3	129.10446E-6	30.397119E-3	163.38080E-6	30.225934E-3	179.86374E-6	30.115681E-3	166.62512E-6	30.046362E-3	155.05854E-6	30.202271E-3	218.15726E-6	30.342624E-3	157.44312E-6	30.009374E-3	162.56821E-6	30.359078E-3	159.18423E-6	30.180587E-3	175.21378E-6
25.000006E-3	30.245973E-3	314.46596E-6	30.462883E-3	257.52705E-6	30.291338E-3	240.84146E-6	30.224767E-3	251.17985E-6	30.123143E-3	227.82550E-6	30.274743E-3	269.13258E-6	30.239072E-3	239.00667E-6	29.984705E-3	228.08221E-6	30.407488E-3	235.00202E-6	30.269595E-3	261.84952E-6
27.500004E-3	30.354258E-3	311.78881E-6	30.579617E-3	343.20678E-6	30.399727E-3	332.92378E-6	30.362323E-3	360.40175E-6	30.260658E-3	346.00950E-6	30.363502E-3	283.40833E-6	30.347180E-3	347.55259E-6	30.065242E-3	337.78502E-6	30.444372E-3	371.99311E-6	30.320290E-3	359.05416E-6
30.000001E-3	30.515222E-3	600.03222E-6	30.730428E-3	535.17288E-6	30.521093E-3	471.26974E-6	30.486403E-3	522.05788E-6	30.423064E-3	509.87815E-6	30.615713E-3	587.51978E-6	30.487385E-3	508.67820E-6	30.183086E-3	507.37063E-6	30.587573E-3	559.31043E-6	30.528143E-3	521.25199E-6
32.499999E-3	30.722016E-3	678.65028E-6	30.899515E-3	705.36713E-6	30.758351E-3	711.80973E-6	30.666754E-3	701.96571E-6	30.560913E-3	726.34133E-6	30.831566E-3	684.31243E-6	30.736305E-3	720.49163E-6	30.366177E-3	722.72337E-6	30.815274E-3	731.76937E-6	30.735718E-3	714.84182E-6
34.999996E-3	31.019805E-3	1.0321075E-3	31.039938E-3	997.33437E-6	31.074209E-3	1.0062704E-3	30.955454E-3	1.0151566E-3	30.829327E-3	996.24973E-6	31.102730E-3	969.64347E-6	30.991636E-3	987.19297E-6	30.641519E-3	998.08432E-6	31.114252E-3	1.0077377E-3	31.030117E-3	1.0095254E-3
37.499994E-3	31.386349E-3	1.3401649E-3	31.375531E-3	1.3273953E-3	31.433336E-3	1.3549858E-3	31.333629E-3	1.3491008E-3	31.222418E-3	1.3393535E-3	31.509120E-3	1.4121223E-3	31.397682E-3	1.3619699E-3	31.054731E-3	1.3044131E-3	31.480782E-3	1.3732361E-3	31.394862E-3	1.3155312E-3
39.999992E-3	31.866163E-3	1.7721347E-3	31.956922E-3	1.7285749E-3	31.961396E-3	1.7650230E-3	31.821642E-3	1.7599090E-3	31.721096E-3	1.7291525E-3	31.859469E-3	1.6989177E-3	31.869963E-3	1.7666952E-3	31.428065E-3	1.7526657E-3	32.026913E-3	1.7626244E-3	31.900201E-3	1.7521662E-3
42.499989E-3	32.475166E-3	2.2215401E-3	32.548688E-3	2.2108166E-3	32.445110E-3	2.2383067E-3	32.462414E-3	2.2136141E-3	32.309830E-3	2.1971136E-3	32.444317E-3	2.1596043E-3	32.545876E-3	2.2225981E-3	32.048706E-3	2.1942684E-3	32.631822E-3	2.2130304E-3	32.525901E-3	2.1913000E-3
44.999987E-3	33.209469E-3	2.6713009E-3	33.296373E-3	2.6655809E-3	33.164971E-3	2.6945127E-3	33.259522E-3	2.6479044E-3	33.029184E-3	2.6681195E-3	33.192314E-3	2.7334488E-3	33.237923E-3	2.6918559E-3	32.696769E-3	2.6438651E-3	33.400692E-3	2.6782549E-3	33.263046E-3	2.6331586E-3
47.499985E-3	34.035698E-3	3.0836305E-3	34.161482E-3	3.0612620E-3	33.979308E-3	3.0532090E-3	34.041636E-3	3.0647242E-3	33.869099E-3	3.0327758E-3	34.008078E-3	3.0454025E-3	34.332830E-3	3.0626070E-3	33.512287E-3	3.0566289E-3	34.193017E-3	3.0679619E-3	34.127962E-3	3.0732800E-3
49.999982E-3	35.001826E-3	3.3430005E-3	35.080332E-3	3.3577576E-3	34.885794E-3	3.3241939E-3	34.949929E-3	3.3592382E-3	34.784149E-3	3.3589813E-3	34.927223E-3	3.3128976E-3	35.071030E-3	3.3721451E-3	34.537312E-3	3.3588957E-3	35.128064E-3	3.3835967E-3	35.108916E-3	3.4031682E-3
52.499980E-3	35.976127E-3	3.5654882E-3	36.103565E-3	3.5508173E-3	35.846405E-3	3.5265745E-3	35.950609E-3	3.5685832E-3	35.792824E-3	3.5585065E-3	35.913117E-3	3.6039480E-3	36.048871E-3	3.5422149E-3	35.511587E-3	3.5599920E-3	36.060885E-3	3.5656649E-3	36.097594E-3	3.5537914E-3
55.000007E-3	37.001230E-3	3.6095458E-3	37.168127E-3	3.6456559E-3	36.876224E-3	3.5922988E-3	36.979746E-3	3.6435560E-3	36.834132E-3	3.6502050E-3	36.930002E-3	3.6798476E-3	37.019189E-3	3.6318107E-3	36.532618E-3	3.6373364E-3	36.897499E-3	3.6064140E-3	37.123099E-3	3.6213112E-3
57.500005E-3	38.014524E-3	3.6126131E-3	38.186114E-3	3.6027373E-3	37.956938E-3	3.5366479E-3	38.010806E-3	3.6058477E-3	37.881758E-3	3.5765821E-3	38.018361E-3	3.5079026E-3	38.065132E-3	3.5846967E-3	37.611384E-3	3.5685569E-3	37.923716E-3	3.6268665E-3	38.187660E-3	3.5753676E-3
60.000002E-3	39.115719E-3	3.4270510E-3	39.271913E-3	3.4846130E-3	39.047141E-3	3.4784074E-3	39.363354E-3	3.5044649E-3	38.941983E-3	3.4633989E-3	39.125398E-3	3.5095601E-3	39.178345E-3	3.5021359E-3	38.700096E-3	3.4933989E-3	38.976435E-3	3.4768989E-3	39.269954E-3	3.4923516E-3
62.500000E-3	40.180091E-3	3.3978913E-3	40.370476E-3	3.3863047E-3	40.057886E-3	3.3610447E-3	40.428013E-3	3.3628314E-3	40.011950E-3	3.3126730E-3	40.185511E-3	3.3963863E-3	40.192306E-3	3.3592808E-3	39.756782E-3	3.3848854E-3	40.081851E-3	3.3827887E-3	40.323485E-3	3.3895578E-3
64.999998E-3	41.159928E-3	3.2849917E-3	41.347064E-3	3.2384428E-3	41.067827E-3	3.2491272E-3	41.456506E-3	3.2626085E-3	40.966786E-3	3.2059262E-3	41.132279E-3	3.2150911E-3	41.107416E-3	3.2155851E-3	40.802587E-3	3.2676316E-3	41.111771E-3	3.1936285E-3	41.314542E-3	3.2446268E-3
67.499995E-3	42.119712E-3	3.0989156E-3	42.327575E-3	3.1243416E-3	42.013325E-3	3.1067312E-3	42.394191E-3	3.1314364E-3	41.907407E-3	3.1242948E-3	42.028371E-3	3.0185715E-3	42.076163E-3	3.1297870E-3	41.765500E-3	3.1556778E-3	42.058446E-3	3.1183639E-3	42.298928E-3	3.1225036E-3
69.999993E-3	43.050319E-3	3.0228535E-3	43.355096E-3	2.9936563E-3	42.953234E-3	2.9875506E-3	43.335430E-3	2.9917804E-3	42.832904E-3	2.9923362E-3	43.017671E-3	3.0098311E-3	43.028824E-3	3.0042040E-3	42.643424E-3	3.0174842E-3	43.069467E-3	3.0019556E-3	43.250021E-3	3.0017463E-3
72.499990E-3	43.844417E-3	2.8955040E-3	44.227872E-3	2.8920434E-3	43.828193E-3	2.8522580E-3	44.219855E-3	2.8984931E-3	43.722797E-3	2.9023034E-3	43.914691E-3	2.9089812E-3	43.903098E-3	2.8703653E-3	43.527268E-3	2.8693778E-3	43.946192E-3	2.8852820E-3	44.158146E-3	2.8379939E-3
74.999988E-3	44.843141E-3	2.8112261E-3	45.106225E-3	2.7796135E-3	44.731930E-3	2.7535704E-3	45.094248E-3	2.7648909E-3	44.559479E-3	2.7933102E-3	44.785380E-3	2.7067054E-3	44.761848E-3	2.7877754E-3	44.255108E-3	2.7888841E-3	44.866651E-3	2.7951787E-3	45.048058E-3	2.7760675E-3
77.499986E-3	45.677878E-3	2.7238119E-3	45.889709E-3	2.6646280E-3	45.546737E-3	2.6846228E-3	45.838840E-3	2.6646394E-3	45.394443E-3	2.6724830E-3	45.632631E-3	2.5884821E-3	45.644846E-3	2.7167785E-3	45.145828E-3	2.6867751E-3	45.727290E-3	2.6676089E-3	45.874812E-3	2.6850908E-3
79.999983E-3	46.485160E-3	2.5625373E-3	46.696912E-3	2.5962295E-3	46.373449E-3	2.5848981E-3	46.555735E-3	2.5896782E-3	46.284664E-3	2.5878537E-3	46.404652E-3	2.6393645E-3	46.435226E-3	2.5966584E-3	46.060562E-3	2.5868379E-3	46.596184E-3	2.5954079E-3	46.678308E-3	2.5666559E-3
82.499981E-3	47.220308E-3	2.4922153E-3	47.547359E-3	2.5493703E-3	47.104154E-3	2.4917808E-3	47.385667E-3	2.5063590E-3	47.074787E-3	2.5131162E-3	47.208000E-3	2.5743695E-3	47.237981E-3	2.5395022E-3	46.821497E-3	2.5219775E-3	47.214836E-3	2.5074391E-3	47.451496E-3	2.5178029E-3
84.999979E-3	47.945913E-3	2.4162729E-3	48.286799E-3	2.4644046E-3	47.881730E-3	2.4760237E-3	48.081055E-3	2.4536785E-3	47.803730E-3	2.4376633E-3	47.937684E-3	2.4125038E-3	47.971793E-3	2.4576371E-3	47.583137E-3	2.4319738E-3	47.953717E-3	2.4309168E-3	48.327670E-3	2.4479665E-3
87.500006E-3	48.679620E-3	2.3629155E-3	49.036738E-3	2.4106612E-3	48.760463E-3	2.4118484E-3	48.808210E-3	2.4108940E-3	48.522212E-3	2.4064530E-3	48.659179E-3	2.3222016E-3	48.699643E-3	2.4286646E-3	48.350267E-3	2.3912818E-3	48.747882E-3	2.4063543E-3	49.107682E-3	2.4268271E-3
90.000004E-3	49.430482E-3	2.3714271E-3	49.757246E-3	2.3517103E-3	49.392831E-3	2.3399491E-3	49.565312E-3	2.3532691E-3	49.296372E-3	2.3402101E-3	49.425535E-3	2.2523436E-3	49.432158E-3	2.3445722E-3	49.029320E-3	2.3536186E-3	49.445767E-3	2.3504060E-3	49.844250E-3	2.3487622E-3
92.500001E-3	50.171237E-3	2.3586156E-3	50.468702E-3	2.3180589E-3	50.049569E-3	2.3132947E-3	50.275698E-3	2.3432863E-3	50.030354E-3	2.2992722E-3	50.081279E-3	2.2463959E-3	50.079338E-3	2.3429992E-3	49.789932E-3	2.3238249E-3	50.124619E-3	2.3049752E-3	50.512917E-3	2.3138972E-3
94.999999E-3	50.864499E-3	2.3426763E-3	51.142097E-3	2.2860619E-3	50.766453E-3	2.3297751E-3	50.960116E-3	2.2820875E-3	50.725512E-3	2.2852072E-3	50.829209E-3	2.1847461E-3	50.808784E-3	2.3062397E-3	50.502513E-3	2.3148982E-3	50.840765E-3	2.3210361E-3	50.910842E-3	2.3020955E-3
97.499996E-3	51.582593E-3	2.2838756E-3	51.812157E-3	2.2810935E-3	51.432397E-3	2.2376515E-3	51.619645E-3	2.2536309E-3	51.375177E-3	2.2772958E-3	51.514853E-3	2.2108951E-3	51.470079E-3	2.2822630E-3	51.281087E-3	2.2669772E-3	51.482126E-3	2.2498590E-3	51.596384E-3	2.2686948E-3
99.999994E-3	52.232850E-3	2.2227014E-3	52.489087E-3	2.2536323E-3	52.119210E-3	2.2471065E-3	52.264061E-3	2.2730306E-3	52.054156E-3	2.2294868E-3	52.164119E-3	2.2632161E-3	52.198291E-3	2.2679933E-3	51.989466E-3	2.2169347E-3	52.079048E-3	2.2363062E-3	52.283689E-3	2.2451244E-3
102.49999E-3	52.916255E-3	2.1941373E-3	53.184189E-3	2.2208409E-3	52.801963E-3	2.2228856E-3	52.954782E-3	2.2247136E-3	52.743863E-3	2.1896686E-3	52.820124E-3	2.3099633E-3	52.874871E-3	2.2509359E-3	52.656502E-3	2.2168185E-3	52.802194E-3	2.2354964E-3	52.972823E-3	2.2062615E-3
104.99999E-3	53.544115E-3	2.2068629E-3	53.838238E-3	2.2315343E-3	53.453140E-3	2.2261660E-3	53.667556E-3	2.2264742E-3	53.410728E-3	2.2283683E-3	53.501479E-3	2.2322254E-3	53.534657E-3	2.2019546E-3	53.301491E-3	2.2171373E-3	53.459775E-3	2.2229052E-3	53.644929E-3	2.2298568E-3
107.49999E-3	54.063320E-3	2.1904607E-3	54.271016E-3	2.1992065E-3	54.127917E-3	2.2325111E-3	54.382514E-3	2.1910924E-3	54.075669E-3	2.1966472E-3	54.150470E-3	2.1365667E-3	54.236438E-3	2.1828029E-3	53.930126E-3	2.1890777E-3	54.212250E-3	2.2059886E-3	54.314941E-3	2.1706598E-3
109.99998E-3	54.714896E-3	2.2080929E-3	54.928973E-3	2.1824348E-3	54.790508E-3	2.1707581E-3	55.059336E-3	2.1617755E-3	54.863419E-3	2.1701411E-3	54.847281E-3	2.2347241E-3	54.907102E-3	2.1917599E-3	54.591890E-3	2.2044452E-3	54.879759E-3	2.1825375E-3	54.925408E-3	2.2080487E-3
112.49998E-3	55.369236E-3	2.2167948E-3	55.582955E-3	2.2024489E-3	55.594809E-3	2.1739441E-3	55.692989E-3	2.1817398E-3	55.584956E-3	2.1960153E-3	55.475734E-3	2.1973422E-3	55.578586E-3	2.1838497E-3	55.254780E-3	2.1722089E-3	55.579033E-3	2.1878122E-3	55.495985E-3	2.1836804E-3
114.99998E-3	56.009468E-3	2.2161943E-3	56.242421E-3	2.1830103E-3	56.112479E-3	2.1438273E-3	56.301225E-3	2.1555088E-3	56.232259E-3	2.1391376E-3	56.132942E-3	2.1321471E-3	56.233663E-3	2.1665364E-3	55.920847E-3	2.1730708E-3	56.254279E-3	2.2137214E-3	56.178909E-3	2.1513388E-3
117.49998E-3	56.679692E-3	2.1812650E-3	56.912214E-3	2.1884816E-3	56.759153E-3	2.1567820E-3	56.993924E-3	2.1892178E-3	56.905068E-3	2.2285243E-3	56.802802E-3	2.2328321E-3	56.900829E-3	2.1951497E-3	56.587413E-3	2.1567310E-3	56.908458E-3	2.1973092E-3	56.802638E-3	2.2156409E-3
120.00000E-3	57.321511E-3	2.1619294E-3	57.599038E-3	2.1586253E-3	57.417136E-3	2.1915911E-3	57.665478E-3	2.1739048E-3	57.552375E-3	2.1388726E-3	57.463564E-3	2.1246844E-3	57.583187E-3	2.1814338E-3	57.276841E-3	2.1834711E-3	57.558201E-3	2.1890600E-3	57.495315E-3	2.1190487E-3
122.50000E-3	57.972237E-3	2.1639096E-3	58.223259E-3	2.1749130E-3	58.070101E-3	2.1785528E-3	58.247551E-3	2.1645932E-3	58.188539E-3	2.2080834E-3	58.090318E-3	2.2423244E-3	58.215812E-3	2.1512771E-3	57.954337E-3	2.1725185E-3	58.190085E-3	2.1709937E-3	58.133766E-3	2.2031730E-3
125.00000E-3	58.647737E-3	2.1619597E-3	58.852494E-3	2.1973008E-3	58.706131E-3	2.1444412E-3	58.935910E-3	2.1836786E-3	58.807656E-3	2.1262141E-3	58.680370E-3	2.1192422E-3	58.806006E-3	2.1782415E-3	58.660354E-3	2.1696216E-3	58.804665E-3	2.1483165E-3	58.930427E-3	2.1855931E-3
127.50000E-3	59.302792E-3	2.1497561E-3	59.537180E-3	2.1848315E-3	59.359562E-3	2.1875715E-3	59.622362E-3	2.1876169E-3	59.681777E-3	2.1917718E-3	59.274655E-3	2.2376825E-3	59.518721E-3	2.2074406E-3	59.308250E-3	2.1829947E-3	59.444863E-3	2.1794818E-3	59.559889E-3	2.1574032E-3
130.00000E-3	59.919331E-3	2.1483726E-3	60.211621E-3	2.1968528E-3	60.032651E-3	2.2101603E-3	60.296424E-3	2.1520434E-3	60.345490E-3	2.1846197E-3	59.973564E-3	2.1120333E-3	60.170233E-3	2.1736303E-3	59.957050E-3	2.1762853E-3	60.095441E-3	2.1961257E-3	60.222495E-3	2.1817759E-3
132.49999E-3	60.601700E-3	2.0932443E-3	60.864035E-3	2.1844003E-3	60.701281E-3	2.1659569E-3	60.946211E-3	2.2041269E-3	61.001007E-3	2.1432643E-3	60.622413E-3	2.2012691E-3	60.694244E-3	2.1749402E-3	60.639992E-3	2.1873566E-3	60.737982E-3	2.2001856E-3	60.896859E-3	2.1806629E-3
134.99999E-3	61.217517E-3	2.1456867E-3	61.524369E-3	2.1860905E-3	61.341383E-3	2.1347271E-3	61.607350E-3	2.1595480E-3	61.540004E-3	2.1815931E-3	61.297592E-3	2.1885086E-3	61.329439E-3	2.1742079E-3	61.298542E-3	2.1707404E-3	61.413426E-3	2.1928512E-3	61.543748E-3	2.1597291E-3
137.49999E-3	61.898313E-3	2.1578004E-3	62.240500E-3	2.1716235E-3	61.983570E-3	2.2019090E-3	62.302858E-3	2.1685238E-3	62.141694E-3	2.1747355E-3	61.923698E-3	2.1377672E-3	62.010936E-3	2.1882353E-3	61.918192E-3	2.1707048E-3	62.069859E-3	2.1786271E-3	62.219877E-3	2.1412044E-3
139.99999E-3	62.545367E-3	2.1396310E-3	62.884167E-3	2.1922248E-3	62.648192E-3	2.1748901E-3	62.918283E-3	2.1697821E-3	62.792219E-3	2.1943618E-3	62.579103E-3	2.2176057E-3	62.691361E-3	2.1954039E-3	62.611960E-3	2.1725455E-3	62.841848E-3	2.1812902E-3	62.864855E-3	2.1683534E-3
142.49998E-3	63.350745E-3	2.1648891E-3	63.683815E-3	2.1808555E-3	63.322693E-3	2.1325268E-3	63.588016E-3	2.2021818E-3	63.478455E-3	2.1331047E-3	63.284539E-3	2.1306523E-3	63.347362E-3	2.1751130E-3	63.254446E-3	2.1577012E-3	63.533269E-3	2.1718268E-3	63.545354E-3	2.1917135E-3
144.99998E-3	63.992381E-3	2.1973101E-3	64.264536E-3	2.1858867E-3	64.102717E-3	2.2046345E-3	64.512104E-3	2.1519409E-3	64.125180E-3	2.1752270E-3	63.924149E-3	2.2206628E-3	64.000964E-3	2.2032233E-3	63.918002E-3	2.1916216E-3	64.188659E-3	2.1897068E-3	64.216577E-3	2.1778655E-3
147.49998E-3	64.675733E-3	2.2296517E-3	64.967737E-3	2.1831274E-3	64.698540E-3	2.1535852E-3	65.134674E-3	2.1932502E-3	64.786151E-3	2.2304042E-3	64.562485E-3	2.2156234E-3	64.686134E-3	2.1587403E-3	64.630657E-3	2.2145147E-3	64.891718E-3	2.2005492E-3	64.854853E-3	2.1864106E-3
149.99998E-3	65.336607E-3	2.1836560E-3	65.631211E-3	2.1805051E-3	65.309525E-3	2.1732349E-3	65.774247E-3	2.1980742E-3	65.463163E-3	2.2010391E-3	65.251008E-3	2.1402233E-3	65.327249E-3	2.1825039E-3	65.241329E-3	2.1893955E-3	65.688901E-3	2.1775281E-3	65.536469E-3	2.1835715E-3
152.50000E-3	66.009462E-3	2.1413839E-3	66.263989E-3	2.1965073E-3	65.975323E-3	2.1989136E-3	66.203356E-3	2.1698761E-3	66.140227E-3	2.1880788E-3	65.855473E-3	2.1528495E-3	65.938920E-3	2.1860392E-3	65.915465E-3	2.1832599E-3	66.304483E-3	2.1706163E-3	66.177204E-3	2.1888842E-3
155.00000E-3	66.686012E-3	2.1437316E-3	66.885769E-3	2.1888209E-3	66.601120E-3	2.1330006E-3	66.916965E-3	2.2015970E-3	66.783622E-3	2.1969986E-3	66.550322E-3	2.2203526E-3	66.590704E-3	2.1788415E-3	66.625960E-3	2.1575966E-3	66.945843E-3	2.1974673E-3	66.818215E-3	2.1657690E-3
157.50000E-3	67.327380E-3	2.1886583E-3	67.563266E-3	2.1893107E-3	67.249186E-3	2.2205147E-3	67.585848E-3	2.1953143E-3	67.351326E-3	2.1959697E-3	67.206413E-3	2.2108236E-3	67.262843E-3	2.1924861E-3	67.330390E-3	2.1512068E-3	67.637086E-3	2.1851920E-3	67.496032E-3	2.1542071E-3
160.00000E-3	68.036817E-3	2.2028328E-3	68.253592E-3	2.1768962E-3	67.830056E-3	2.1513244E-3	68.207577E-3	2.1532979E-3	68.092734E-3	2.2043886E-3	67.885987E-3	2.1741260E-3	67.911431E-3	2.1682212E-3	68.004161E-3	2.1896763E-3	68.308942E-3	2.1929159E-3	68.134308E-3	2.1647215E-3
162.49999E-3	68.685561E-3	2.1745856E-3	68.902567E-3	2.1826385E-3	68.458177E-3	2.1893075E-3	68.838499E-3	2.1834807E-3	68.667963E-3	2.1873941E-3	68.541199E-3	2.1536616E-3	68.594269E-3	2.1941508E-3	68.670593E-3	2.1897594E-3	68.956211E-3	2.2184122E-3	68.757258E-3	2.1986309E-3
164.99999E-3	69.369026E-3	2.1320402E-3	69.532491E-3	2.1734438E-3	69.118969E-3	2.1307729E-3	69.495119E-3	2.1805228E-3	69.314867E-3	2.1856716E-3	69.192052E-3	2.2072494E-3	69.220833E-3	2.1978191E-3	69.318041E-3	2.1679259E-3	69.620520E-3	2.1934828E-3	69.428436E-3	2.2009553E-3
167.49999E-3	70.029117E-3	2.1311145E-3	70.198536E-3	2.1733951E-3	69.802873E-3	2.1903981E-3	70.136622E-3	2.1776112E-3	69.984294E-3	2.1995415E-3	69.866873E-3	2.2045015E-3	69.865063E-3	2.1968468E-3	69.950454E-3	2.1814567E-3	70.284769E-3	2.1901235E-3	70.101365E-3	2.1623964E-3
169.99999E-3	70.672192E-3	2.1906286E-3	70.861846E-3	2.2067309E-3	70.555680E-3	2.1423781E-3	70.765235E-3	2.1628065E-3	70.683807E-3	2.1854097E-3	70.549831E-3	2.1505505E-3	70.612200E-3	2.1865852E-3	70.654161E-3	2.2000447E-3	70.828609E-3	2.1573405E-3	70.771568E-3	2.1569417E-3
172.49998E-3	71.350567E-3	2.2024438E-3	71.530826E-3	2.1784275E-3	71.212605E-3	2.2133263E-3	71.459271E-3	2.1751055E-3	71.270995E-3	2.2176285E-3	71.306646E-3	2.1468641E-3	71.363121E-3	2.1737693E-3	71.276940E-3	2.1917287E-3	71.429960E-3	2.1979867E-3	71.431041E-3	2.1913792E-3
174.99998E-3	72.017789E-3	2.1945680E-3	72.208568E-3	2.1804764E-3	71.791016E-3	2.1943918E-3	72.112449E-3	2.1582744E-3	71.897633E-3	2.1827566E-3	71.964584E-3	2.2139577E-3	72.017066E-3	2.1539314E-3	71.916915E-3	2.1869743E-3	72.069928E-3	2.1799209E-3	72.050981E-3	2.1914674E-3
177.49998E-3	72.654687E-3	2.1867873E-3	72.879247E-3	2.1698959E-3	72.465032E-3	2.1573165E-3	72.730236E-3	2.1891219E-3	72.591387E-3	2.1909596E-3	72.598889E-3	2.2261059E-3	72.656013E-3	2.1837114E-3	72.497845E-3	2.1852469E-3	72.734147E-3	2.1937208E-3	72.700001E-3	2.1945187E-3
179.99998E-3	73.301934E-3	2.1912386E-3	73.544897E-3	2.1894260E-3	73.179610E-3	2.2083146E-3	73.381618E-3	2.1671429E-3	73.228352E-3	2.1643448E-3	73.292509E-3	2.1954447E-3	73.346511E-3	2.1756142E-3	73.139980E-3	2.1856842E-3	73.403113E-3	2.1842092E-3	73.361300E-3	2.1811384E-3
182.50000E-3	73.972471E-3	2.1688414E-3	74.211530E-3	2.1932111E-3	73.830396E-3	2.2349919E-3	74.076325E-3	2.1912605E-3	73.891535E-3	2.2281248E-3	73.981874E-3	2.1496075E-3	73.959708E-3	2.1787598E-3	73.823281E-3	2.2041032E-3	73.969848E-3	2.1730028E-3	74.028932E-3	2.1498599E-3
185.00000E-3	74.635431E-3	2.1695539E-3	74.752122E-3	2.1920586E-3	74.496403E-3	2.1534353E-3	74.705347E-3	2.1753442E-3	74.557766E-3	2.2129107E-3	74.636675E-3	2.1693248E-3	74.613675E-3	2.1735802E-3	74.488088E-3	2.2001807E-3	74.640237E-3	2.2247871E-3	74.674770E-3	2.1887841E-3
187.50000E-3	75.265758E-3	2.1724759E-3	75.490080E-3	2.1823805E-3	75.156890E-3	2.2207703E-3	75.370714E-3	2.1938905E-3	75.220823E-3	2.1886898E-3	75.269945E-3	2.2069288E-3	75.166859E-3	2.2055684E-3	75.141653E-3	2.2304505E-3	75.301372E-3	2.1897068E-3	75.367272E-3	2.2004398E-3
190.00000E-3	75.954601E-3	2.1707236E-3	76.141104E-3	2.1742044E-3	75.811036E-3	2.1979641E-3	76.020651E-3	2.1767293E-3	75.867638E-3	2.1583478E-3	75.936884E-3	2.2226512E-3	76.107867E-3	2.1719397E-3	75.898215E-3	2.2288379E-3	75.967766E-3	2.2005667E-3	75.991303E-3	2.1660854E-3
192.50000E-3	76.596327E-3	2.1633378E-3	76.822534E-3	2.1849633E-3	76.578759E-3	2.1673518E-3	76.703615E-3	2.1723399E-3	76.525785E-3	2.1942956E-3	76.578803E-3	2.2315057E-3	76.793738E-3	2.2059572E-3	76.531403E-3	2.1979541E-3	76.610327E-3	2.1734922E-3	76.656356E-3	2.1604656E-3
194.99999E-3	77.231362E-3	2.1424657E-3	77.475145E-3	2.1874253E-3	77.238493E-3	2.1610616E-3	77.301957E-3	2.1760410E-3	77.356137E-3	2.1958274E-3	77.241242E-3	2.2209294E-3	77.435337E-3	2.1924351E-3	77.198699E-3	2.2041004E-3	77.294908E-3	2.2211412E-3	77.354610E-3	2.2068059E-3
197.49999E-3	77.922828E-3	2.1522471E-3	78.109242E-3	2.1712591E-3	77.918425E-3	2.2041285E-3	77.897929E-3	2.1840124E-3	78.020580E-3	2.1781605E-3	77.881195E-3	2.1682044E-3	78.095071E-3	2.1760436E-3	77.854477E-3	2.2293867E-3	78.021660E-3	2.1676107E-3	78.116566E-3	2.1829105E-3
199.99999E-3	78.557774E-3	2.1692934E-3	78.801170E-3	2.1947557E-3	78.573436E-3	2.2243639E-3	78.582607E-3	2.2007336E-3	78.694299E-3	2.2136248E-3	78.522064E-3	2.1595035E-3	78.798614E-3	2.1403639E-3	78.536265E-3	2.2252582E-3	78.690536E-3	2.1959404E-3	78.945503E-3	2.2184697E-3
202.49999E-3	79.197153E-3	2.1810648E-3	79.453833E-3	2.1827167E-3	79.256795E-3	2.1925173E-3	79.299890E-3	2.2100527E-3	79.373725E-3	2.1931578E-3	79.212382E-3	2.1737418E-3	79.522356E-3	2.1883857E-3	79.204917E-3	2.2239480E-3	79.330437E-3	2.1879112E-3	79.613037E-3	2.1826127E-3
204.99998E-3	79.858325E-3	2.2126250E-3	80.261551E-3	2.2092082E-3	79.953983E-3	2.1925415E-3	79.962343E-3	2.2036294E-3	80.118157E-3	2.2359912E-3	79.855673E-3	2.1973464E-3	80.142260E-3	2.1696261E-3	79.860449E-3	2.2205433E-3	80.080539E-3	2.2018964E-3	80.269508E-3	2.2171019E-3
207.49998E-3	80.514506E-3	2.2194881E-3	80.972642E-3	2.2165165E-3	80.569692E-3	2.2242125E-3	80.607720E-3	2.2008289E-3	80.778167E-3	2.2262936E-3	80.532424E-3	2.2197976E-3	80.778942E-3	2.1938866E-3	80.537148E-3	2.2424215E-3	80.747448E-3	2.2002943E-3	80.929965E-3	2.2133847E-3
209.99998E-3	81.170477E-3	2.2468527E-3	81.541829E-3	2.2256637E-3	81.247270E-3	2.2329697E-3	81.320331E-3	2.1980782E-3	81.454314E-3	2.2049276E-3	81.204608E-3	2.2390273E-3	81.370257E-3	2.1787481E-3	81.201687E-3	2.2235597E-3	81.381872E-3	2.1943522E-3	81.594147E-3	2.2163880E-3
212.49998E-3	81.839859E-3	2.2287576E-3	82.113326E-3	2.1899894E-3	81.894331E-3	2.2499037E-3	81.983797E-3	2.2092587E-3	82.109682E-3	2.2657909E-3	81.890777E-3	2.2480846E-3	82.033373E-3	2.1954963E-3	81.866115E-3	2.2428508E-3	82.024492E-3	2.2053446E-3	82.031704E-3	2.1509386E-3
215.00000E-3	82.516015E-3	2.1887845E-3	82.793169E-3	2.1922032E-3	82.562298E-3	2.2601848E-3	82.621604E-3	2.1793235E-3	82.782567E-3	2.2215724E-3	82.561031E-3	2.2194437E-3	82.635105E-3	2.2137242E-3	82.537629E-3	2.2340652E-3	82.648292E-3	2.2522993E-3	82.601935E-3	2.2042552E-3
217.50000E-3	83.170779E-3	2.1860516E-3	83.431587E-3	2.2258849E-3	83.250061E-3	2.2378264E-3	83.318084E-3	2.2053898E-3	83.472952E-3	2.2284577E-3	83.221063E-3	2.1807312E-3	83.303168E-3	2.2119964E-3	83.186805E-3	2.2427205E-3	83.369218E-3	2.2036768E-3	83.278149E-3	2.2192423E-3
220.00000E-3	83.830304E-3	2.1853698E-3	84.021479E-3	2.2066634E-3	83.915457E-3	2.2479263E-3	83.976112E-3	2.1995965E-3	84.142379E-3	2.2565501E-3	83.869547E-3	2.2499806E-3	83.941109E-3	2.2296726E-3	83.839186E-3	2.2260535E-3	84.026836E-3	2.1973792E-3	83.976917E-3	2.2006643E-3
222.50000E-3	84.542558E-3	2.1662598E-3	84.681533E-3	2.2178232E-3	84.558167E-3	2.2187734E-3	84.651656E-3	2.2205792E-3	84.792949E-3	2.1691234E-3	84.546275E-3	2.2884817E-3	84.631436E-3	2.2086296E-3	84.523618E-3	2.2058578E-3	84.671848E-3	2.2298647E-3	84.627837E-3	2.1851275E-3
224.99999E-3	85.197046E-3	2.1952803E-3	85.235275E-3	2.2412122E-3	85.243158E-3	2.2004638E-3	85.284501E-3	2.2040780E-3	85.441217E-3	2.2594703E-3	85.235283E-3	2.2258712E-3	85.313663E-3	2.2072019E-3	85.176997E-3	2.2380007E-3	85.348859E-3	2.2335132E-3	85.307553E-3	2.2162022E-3
227.49999E-3	85.855767E-3	2.2501776E-3	85.847616E-3	2.2314237E-3	85.882314E-3	2.2448702E-3	85.952222E-3	2.2341916E-3	86.080953E-3	2.2368710E-3	85.901566E-3	2.1754953E-3	86.010203E-3	2.2266565E-3	85.822091E-3	2.2150734E-3	86.069383E-3	2.2291820E-3	85.967198E-3	2.2543417E-3
229.99999E-3	86.522855E-3	2.2706918E-3	86.632982E-3	2.2371784E-3	86.532921E-3	2.2189184E-3	86.624131E-3	2.2320745E-3	86.779207E-3	2.2170392E-3	86.595140E-3	2.2318808E-3	86.674951E-3	2.2046666E-3	86.537696E-3	2.2633495E-3	86.719848E-3	2.2233131E-3	86.653024E-3	2.2357081E-3
232.49999E-3	87.098219E-3	2.2453319E-3	87.297767E-3	2.2497333E-3	87.247364E-3	2.2338049E-3	87.331124E-3	2.2161186E-3	87.431945E-3	2.2719677E-3	87.453835E-3	2.2668417E-3	87.311260E-3	2.2286857E-3	87.175019E-3	2.2554607E-3	87.362625E-3	2.2247240E-3	87.348223E-3	2.1771980E-3
234.99998E-3	87.762497E-3	2.2550665E-3	88.027850E-3	2.2225555E-3	87.875985E-3	2.2172425E-3	87.987959E-3	2.2329749E-3	88.110968E-3	2.2741903E-3	88.108480E-3	2.2791061E-3	87.928914E-3	2.1950020E-3	87.866046E-3	2.2595145E-3	87.912232E-3	2.2306135E-3	88.030167E-3	2.2331991E-3
237.49998E-3	88.514902E-3	2.2568458E-3	88.700950E-3	2.2466988E-3	88.578053E-3	2.2349192E-3	88.641949E-3	2.2337369E-3	88.694461E-3	2.2479903E-3	88.794604E-3	2.2258607E-3	88.574663E-3	2.2220516E-3	88.547699E-3	2.2695877E-3	88.709615E-3	2.1979643E-3	88.701643E-3	2.2264875E-3
239.99998E-3	89.237295E-3	2.2388233E-3	89.384846E-3	2.2349905E-3	89.236289E-3	2.2572887E-3	89.284100E-3	2.2304272E-3	89.427955E-3	2.2298272E-3	89.471981E-3	2.2113344E-3	89.310639E-3	2.2142595E-3	89.255504E-3	2.2602922E-3	89.364216E-3	2.2341968E-3	89.388713E-3	2.2381360E-3
242.49998E-3	89.918062E-3	2.2504022E-3	90.060174E-3	2.2173224E-3	89.894652E-3	2.2368608E-3	90.029813E-3	2.2348973E-3	90.136304E-3	2.2381130E-3	90.132438E-3	2.1947182E-3	89.959696E-3	2.2421833E-3	89.926995E-3	2.2604382E-3	90.076774E-3	2.2609623E-3	90.206936E-3	2.2584326E-3
244.99997E-3	90.556785E-3	2.2430117E-3	90.735212E-3	2.2104324E-3	90.602711E-3	2.2371253E-3	90.723231E-3	2.2798455E-3	90.796076E-3	2.2385956E-3	90.781987E-3	2.2603793E-3	90.646043E-3	2.2522616E-3	90.569355E-3	2.2572179E-3	90.891801E-3	2.2366694E-3	90.863749E-3	2.2671402E-3
247.50000E-3	91.286495E-3	2.2512262E-3	91.408014E-3	2.2390548E-3	91.135390E-3	2.2672508E-3	91.417417E-3	2.2229957E-3	91.468818E-3	2.2455039E-3	91.460265E-3	2.2605641E-3	91.319337E-3	2.2307553E-3	91.258563E-3	2.2821531E-3	91.555700E-3	2.2269695E-3	91.536306E-3	2.2572866E-3
250.00000E-3	91.925353E-3	2.2575015E-3	92.041448E-3	2.2480304E-3	91.780983E-3	2.2655369E-3	92.187375E-3	2.2368915E-3	92.172831E-3	2.2832009E-3	92.124701E-3	2.2549413E-3	91.999680E-3	2.2194467E-3	91.928333E-3	2.2981293E-3	92.252061E-3	2.2403444E-3	92.214212E-3	2.2106939E-3
